%OpenBCI Raw EEG Data
%
%Sample Rate = 250.0 Hz
%First Column = SampleIndex
%Other Columns = EEG data in microvolts followed by Accel Data (in G) interleaved with Aux Data
0, 48998.44, 49002.80, 49078.80, 49054.50, 29748.81, 29760.41, 29787.34, 29781.80, 0.00, 0.18, 0.46
1, 49115.59, 49120.04, 49196.21, 49172.25, 29692.46, 29703.99, 29730.75, 29725.36, 0.00, 0.00, 0.00
2, 49578.18, 49582.45, 49658.69, 49635.09, 29467.78, 29479.22, 29505.80, 29500.32, 0.00, 0.00, 0.00
3, 49593.94, 49598.45, 49674.36, 49651.14, 29478.57, 29489.66, 29516.66, 29511.14, 0.00, 0.00, 0.00
4, 49156.18, 49160.67, 49236.67, 49212.64, 29697.33, 29708.96, 29735.66, 29730.50, 0.00, 0.00, 0.00
5, 49111.12, 49115.61, 49191.79, 49167.60, 29673.04, 29684.66, 29711.68, 29706.25, 0.00, 0.00, 0.00
6, 49612.94, 49617.16, 49693.02, 49669.84, 29436.11, 29447.44, 29474.53, 29468.72, 0.00, 0.00, 0.00
7, 49741.17, 49745.28, 49821.21, 49798.16, 29408.10, 29419.90, 29446.68, 29440.78, 0.01, 0.36, 0.97
8, 49280.92, 49284.93, 49361.12, 49337.50, 29635.33, 29647.08, 29673.97, 29668.32, 0.00, 0.00, 0.00
9, 49180.21, 49184.48, 49260.43, 49236.73, 29687.79, 29698.98, 29725.90, 29720.53, 0.00, 0.00, 0.00
10, 49653.48, 49657.86, 49733.43, 49710.25, 29446.77, 29457.88, 29484.70, 29479.02, 0.00, 0.00, 0.00
11, 49867.25, 49871.57, 49947.68, 49924.34, 29352.51, 29363.87, 29390.78, 29384.94, 0.00, 0.00, 0.00
12, 49460.12, 49464.70, 49540.89, 49517.16, 29571.16, 29582.91, 29609.60, 29604.17, 0.00, 0.00, 0.00
13, 49219.79, 49224.22, 49300.19, 49276.30, 29682.65, 29694.54, 29721.05, 29715.64, 0.00, 0.00, 0.00
14, 49626.19, 49630.32, 49706.25, 49682.88, 29458.84, 29470.44, 29497.33, 29491.58, 0.00, 0.00, 0.00
15, 49970.21, 49974.14, 50049.96, 50026.69, 29317.66, 29328.64, 29355.84, 29349.83, 0.00, 0.00, 0.00
16, 49651.38, 49655.52, 49731.94, 49708.29, 29491.25, 29502.80, 29529.43, 29523.84, 0.00, 0.00, 0.00
17, 49315.28, 49319.32, 49395.88, 49372.01, 29631.95, 29643.51, 29670.06, 29664.81, -0.00, 0.35, 0.95
18, 49642.08, 49646.22, 49722.30, 49698.90, 29465.92, 29477.23, 29504.28, 29498.56, 0.00, 0.00, 0.00
19, 50073.65, 50077.94, 50154.05, 50130.85, 29258.61, 29269.72, 29296.99, 29291.09, 0.00, 0.00, 0.00
20, 49853.55, 49857.93, 49934.33, 49911.02, 29385.44, 29396.52, 29423.59, 29417.80, 0.00, 0.00, 0.00
21, 49474.22, 49478.58, 49555.13, 49531.00, 29587.12, 29598.36, 29625.34, 29619.73, 0.00, 0.00, 0.00
22, 49720.65, 49724.74, 49801.05, 49777.33, 29463.06, 29473.93, 29501.15, 29495.29, 0.00, 0.00, 0.00
23, 50242.09, 50246.21, 50322.18, 50299.02, 29219.12, 29229.78, 29257.22, 29251.26, 0.00, 0.00, 0.00
24, 50155.30, 50159.66, 50236.01, 50212.95, 29276.16, 29287.29, 29314.56, 29308.61, 0.00, 0.00, 0.00
25, 49737.84, 49742.15, 49818.66, 49795.06, 29484.83, 29496.10, 29523.10, 29517.78, 0.00, 0.00, 0.00
26, 49880.53, 49885.23, 49961.20, 49938.11, 29408.14, 29418.94, 29446.30, 29440.76, 0.00, 0.00, 0.00
27, 50438.45, 50443.28, 50519.19, 50496.68, 29138.85, 29149.71, 29176.87, 29170.84, 0.01, 0.36, 0.92
28, 50465.72, 50470.24, 50546.32, 50523.43, 29156.35, 29167.28, 29194.28, 29188.43, 0.00, 0.00, 0.00
29, 50023.89, 50028.37, 50104.90, 50081.18, 29383.47, 29394.64, 29421.58, 29415.77, 0.00, 0.00, 0.00
30, 49986.16, 49990.66, 50067.08, 50043.79, 29383.18, 29394.46, 29421.73, 29415.90, 0.00, 0.00, 0.00
31, 50495.16, 50499.50, 50575.69, 50552.92, 29117.15, 29127.92, 29155.23, 29149.36, 0.00, 0.00, 0.00
32, 50611.41, 50615.59, 50692.17, 50669.12, 29091.87, 29102.64, 29129.75, 29123.74, 0.00, 0.00, 0.00
33, 50177.74, 50181.99, 50258.59, 50235.01, 29305.17, 29316.44, 29343.44, 29337.51, 0.00, 0.00, 0.00
34, 50048.95, 50053.18, 50129.51, 50106.30, 29361.61, 29372.61, 29399.90, 29394.09, 0.00, 0.00, 0.00
35, 50548.07, 50552.31, 50628.27, 50605.42, 29122.06, 29132.62, 29160.15, 29154.05, 0.00, 0.00, 0.00
36, 50759.34, 50763.54, 50839.42, 50817.18, 29036.21, 29047.05, 29074.43, 29068.26, 0.00, 0.00, 0.00
37, 50310.71, 50315.14, 50391.40, 50368.45, 29256.49, 29267.44, 29294.42, 29288.81, 0.00, 0.00, 0.00
38, 50040.39, 50044.84, 50121.15, 50097.95, 29374.17, 29385.12, 29412.06, 29406.69, 0.01, 0.35, 0.92
39, 50419.36, 50423.81, 50499.72, 50477.01, 29175.98, 29186.62, 29213.84, 29207.89, 0.00, 0.00, 0.00
40, 50732.36, 50736.38, 50812.60, 50789.98, 29045.17, 29055.70, 29082.95, 29076.76, 0.00, 0.00, 0.00
41, 50360.91, 50365.09, 50441.87, 50418.61, 29228.73, 29239.75, 29266.75, 29260.87, 0.00, 0.00, 0.00
42, 49983.37, 49988.04, 50064.48, 50040.84, 29395.45, 29406.74, 29433.63, 29427.72, 0.00, 0.00, 0.00
43, 50280.20, 50284.34, 50360.73, 50337.69, 29237.00, 29248.22, 29275.26, 29269.32, 0.00, 0.00, 0.00
44, 50704.50, 50708.77, 50785.02, 50762.44, 29051.90, 29062.74, 29090.39, 29084.25, 0.00, 0.00, 0.00
45, 50451.08, 50455.39, 50532.15, 50509.09, 29194.48, 29205.62, 29232.82, 29226.85, 0.00, 0.00, 0.00
46, 49998.26, 50002.88, 50079.15, 50056.04, 29407.32, 29418.54, 29445.81, 29439.77, 0.00, 0.00, 0.00
47, 50172.85, 50177.12, 50253.11, 50230.16, 29306.33, 29317.37, 29344.42, 29338.81, 0.00, 0.00, 0.00
48, 50625.98, 50630.25, 50706.29, 50683.79, 29093.77, 29104.67, 29131.77, 29125.95, 0.02, 0.35, 0.94
49, 50477.90, 50482.38, 50558.95, 50535.93, 29189.05, 29200.27, 29227.43, 29221.31, 0.00, 0.00, 0.00
50, 49968.75, 49972.93, 50049.71, 50026.29, 29430.07, 29441.47, 29468.25, 29462.30, 0.00, 0.00, 0.00
51, 50009.84, 50014.38, 50090.88, 50067.44, 29400.25, 29411.81, 29438.56, 29432.98, 0.00, 0.00, 0.00
52, 50486.06, 50490.55, 50566.77, 50543.84, 29164.49, 29175.62, 29202.66, 29196.88, 0.00, 0.00, 0.00
53, 50448.06, 50452.33, 50528.80, 50505.84, 29201.46, 29212.92, 29239.86, 29234.07, 0.00, 0.00, 0.00
54, 49901.16, 49905.57, 49982.32, 49958.85, 29464.38, 29476.16, 29502.76, 29497.28, 0.00, 0.00, 0.00
55, 49796.58, 49800.91, 49877.38, 49854.13, 29501.17, 29512.46, 29539.37, 29533.83, 0.00, 0.00, 0.00
56, 50250.36, 50254.99, 50331.05, 50307.92, 29271.33, 29282.28, 29309.46, 29303.67, 0.00, 0.00, 0.00
57, 50376.34, 50380.76, 50457.25, 50434.21, 29223.32, 29234.40, 29261.47, 29255.71, 0.00, 0.00, 0.00
58, 49981.65, 49986.12, 50062.56, 50039.21, 29422.40, 29433.80, 29460.60, 29455.15, 0.03, 0.36, 0.95
59, 50150.56, 50155.28, 50231.05, 50207.92, 29324.17, 29335.35, 29362.37, 29356.45, 0.00, 0.00, 0.00
60, 51225.14, 51229.62, 51305.57, 51283.62, 28799.26, 28809.79, 28837.24, 28830.64, 0.00, 0.00, 0.00
61, 51863.00, 51867.00, 51943.33, 51921.87, 28535.98, 28546.28, 28573.89, 28567.18, 0.00, 0.00, 0.00
62, 51361.49, 51365.67, 51442.47, 51419.92, 28828.16, 28838.80, 28866.36, 28860.04, 0.00, 0.00, 0.00
63, 50301.73, 50305.93, 50383.36, 50359.37, 29337.98, 29349.29, 29376.40, 29370.68, 0.00, 0.00, 0.00
64, 50491.20, 50495.61, 50572.27, 50549.05, 29204.88, 29215.96, 29243.23, 29237.31, 0.00, 0.00, 0.00
65, 51917.45, 51921.78, 51998.11, 51976.39, 28509.78, 28520.11, 28547.80, 28541.03, 0.00, 0.00, 0.00
66, 52171.88, 52176.08, 52252.97, 52231.29, 28453.72, 28464.19, 28491.77, 28485.17, 0.00, 0.00, 0.00
67, 51313.48, 51317.68, 51395.00, 51372.40, 28893.50, 28904.20, 28931.63, 28925.39, 0.00, 0.00, 0.00
68, 50959.83, 50964.05, 51041.30, 51018.28, 29037.66, 29048.19, 29075.62, 29069.58, 0.06, 0.37, 0.95
69, 51392.49, 51396.85, 51473.74, 51451.23, 28820.05, 28830.49, 28857.82, 28851.65, 0.00, 0.00, 0.00
70, 52220.13, 52224.38, 52301.18, 52279.41, 28431.33, 28441.59, 28469.06, 28462.53, 0.00, 0.00, 0.00
71, 52128.60, 52133.16, 52210.36, 52188.19, 28498.32, 28508.49, 28536.22, 28529.79, 0.00, 0.00, 0.00
72, 51779.89, 51784.23, 51861.48, 51838.86, 28683.21, 28693.85, 28721.30, 28715.33, 0.00, 0.00, 0.00
73, 52388.93, 52393.23, 52469.89, 52448.32, 28376.03, 28386.40, 28414.01, 28407.37, 0.00, 0.00, 0.00
74, 52987.71, 52992.03, 53069.05, 53047.75, 28119.63, 28129.29, 28157.61, 28150.48, 0.00, 0.00, 0.00
75, 52625.23, 52629.71, 52707.22, 52685.09, 28326.07, 28336.18, 28363.98, 28357.23, 0.00, 0.00, 0.00
76, 52336.45, 52340.99, 52418.55, 52396.27, 28484.79, 28495.30, 28522.72, 28516.29, 0.00, 0.00, 0.00
77, 51680.83, 51685.08, 51763.06, 51740.02, 28807.64, 28818.46, 28845.46, 28839.27, 0.00, 0.00, 0.00
78, 51442.38, 51446.83, 51524.30, 51501.21, 28882.86, 28893.63, 28920.45, 28914.42, 0.09, 0.36, 0.94
79, 51181.38, 51185.98, 51263.34, 51240.52, 28976.55, 28987.15, 29013.70, 29008.07, 0.00, 0.00, 0.00
80, 51802.80, 51807.12, 51884.34, 51862.15, 28651.54, 28661.78, 28689.31, 28682.85, 0.00, 0.00, 0.00
81, 52935.77, 52940.24, 53017.17, 52995.67, 28133.11, 28143.15, 28171.27, 28163.87, 0.00, 0.00, 0.00
82, 53365.93, 53370.31, 53447.69, 53426.32, 27983.38, 27993.35, 28021.29, 28014.42, 0.00, 0.00, 0.00
83, 52972.71, 52976.94, 53054.84, 53032.95, 28213.04, 28223.23, 28250.84, 28244.13, 0.00, 0.00, 0.00
84, 52793.68, 52798.02, 52875.64, 52853.74, 28285.26, 28295.38, 28322.97, 28316.17, 0.00, 0.00, 0.00
85, 53286.18, 53290.67, 53368.14, 53346.82, 28057.99, 28067.62, 28095.52, 28088.65, 0.00, 0.00, 0.00
86, 53588.28, 53592.71, 53670.52, 53649.04, 27942.90, 27952.69, 27980.63, 27973.45, 0.00, 0.00, 0.00
87, 53203.86, 53208.50, 53286.54, 53264.45, 28149.90, 28159.93, 28187.83, 28180.61, 0.00, 0.00, 0.00
88, 52903.09, 52907.65, 52985.86, 52963.37, 28280.32, 28290.56, 28317.74, 28311.26, 0.00, 0.00, 0.00
89, 53299.54, 53304.17, 53382.16, 53359.89, 28099.40, 28109.91, 28137.09, 28130.29, 0.04, 0.35, 0.91
90, 53712.31, 53716.89, 53794.66, 53772.91, 27926.34, 27936.53, 27964.11, 27956.85, 0.00, 0.00, 0.00
91, 53405.11, 53409.60, 53487.90, 53465.39, 28091.56, 28101.84, 28129.36, 28122.27, 0.00, 0.00, 0.00
92, 52969.18, 52973.77, 53052.20, 53029.67, 28283.56, 28294.18, 28321.31, 28314.76, 0.00, 0.00, 0.00
93, 53255.11, 53259.76, 53337.54, 53315.86, 28120.88, 28131.14, 28158.57, 28152.02, 0.00, 0.00, 0.00
94, 53747.02, 53751.34, 53829.28, 53807.78, 27909.13, 27918.76, 27946.21, 27939.75, 0.00, 0.00, 0.00
95, 53551.09, 53555.36, 53633.55, 53611.98, 28022.92, 28032.75, 28059.93, 28053.67, 0.00, 0.00, 0.00
96, 53053.07, 53057.25, 53135.86, 53113.24, 28261.05, 28271.02, 28298.38, 28292.03, 0.00, 0.00, 0.00
97, 53104.64, 53109.02, 53187.27, 53164.88, 28211.28, 28221.87, 28249.12, 28242.57, 0.00, 0.00, 0.00
98, 53601.96, 53606.61, 53684.51, 53662.74, 27980.23, 27990.48, 28018.16, 28010.94, 0.00, 0.00, 0.00
99, 53506.68, 53511.37, 53589.67, 53567.72, 28045.67, 28055.75, 28083.51, 28076.43, 0.01, 0.32, 0.91
100, 52969.70, 52974.10, 53052.73, 53030.05, 28308.21, 28318.72, 28345.92, 28339.46, 0.00, 0.00, 0.00
101, 52981.70, 52986.42, 53064.89, 53042.18, 28295.65, 28306.43, 28333.34, 28326.90, 0.00, 0.00, 0.00
102, 53496.75, 53501.04, 53579.68, 53557.35, 28039.35, 28049.58, 28076.99, 28070.28, 0.00, 0.00, 0.00
103, 53552.86, 53557.39, 53635.98, 53613.54, 28034.07, 28044.15, 28071.64, 28064.96, 0.00, 0.00, 0.00
104, 53075.60, 53080.12, 53158.73, 53136.42, 28285.53, 28295.94, 28323.19, 28316.75, 0.00, 0.00, 0.00
105, 52969.99, 52974.50, 53053.07, 53030.68, 28320.98, 28331.44, 28358.62, 28352.27, 0.00, 0.00, 0.00
106, 53427.53, 53431.91, 53510.25, 53488.30, 28072.31, 28082.35, 28109.82, 28103.05, 0.00, 0.00, 0.00
107, 53623.64, 53627.93, 53706.73, 53684.64, 28017.55, 28027.39, 28055.06, 28048.09, 0.00, 0.00, 0.00
108, 53104.99, 53109.38, 53188.43, 53165.39, 28269.28, 28279.43, 28306.83, 28300.41, 0.00, 0.00, 0.00
109, 52840.04, 52844.21, 52922.85, 52899.94, 28379.92, 28390.60, 28417.74, 28411.44, 0.01, 0.32, 0.92
110, 53280.43, 53284.84, 53363.25, 53341.09, 28162.77, 28173.12, 28200.37, 28193.86, 0.00, 0.00, 0.00
111, 53591.84, 53596.64, 53675.12, 53653.33, 28042.70, 28052.80, 28080.27, 28073.52, 0.00, 0.00, 0.00
112, 53162.73, 53167.33, 53246.35, 53223.59, 28247.04, 28257.72, 28284.70, 28278.35, 0.00, 0.00, 0.00
113, 52799.82, 52804.59, 52883.40, 52860.33, 28390.60, 28401.13, 28428.33, 28422.19, 0.00, 0.00, 0.00
114, 53158.70, 53163.42, 53241.81, 53219.59, 28211.68, 28222.03, 28249.30, 28242.86, 0.00, 0.00, 0.00
115, 53562.11, 53566.56, 53644.95, 53623.06, 28033.47, 28043.75, 28071.11, 28064.38, 0.00, 0.00, 0.00
116, 53249.90, 53254.32, 53332.98, 53310.81, 28199.41, 28210.02, 28237.05, 28230.61, 0.00, 0.00, 0.00
117, 52823.09, 52827.63, 52906.55, 52883.24, 28394.31, 28404.78, 28431.69, 28425.56, 0.00, 0.00, 0.00
118, 53054.57, 53059.15, 53137.67, 53115.21, 28264.52, 28274.75, 28302.09, 28295.61, 0.00, 0.00, 0.00
119, 53532.96, 53537.59, 53615.80, 53594.09, 28039.19, 28049.49, 28077.12, 28070.30, 0.01, 0.33, 0.90
120, 53363.27, 53367.83, 53446.55, 53424.51, 28157.41, 28167.64, 28194.94, 28188.39, 0.00, 0.00, 0.00
121, 52884.98, 52889.43, 52968.34, 52945.43, 28399.70, 28410.09, 28437.36, 28431.06, 0.00, 0.00, 0.00
122, 52958.48, 52963.13, 53041.49, 53018.49, 28331.39, 28341.85, 28369.12, 28362.66, 0.00, 0.00, 0.00
123, 53485.96, 53490.67, 53569.08, 53546.53, 28093.39, 28103.61, 28131.28, 28124.33, 0.00, 0.00, 0.00
124, 53425.36, 53429.74, 53508.51, 53485.96, 28122.32, 28132.22, 28159.71, 28153.09, 0.00, 0.00, 0.00
125, 52909.04, 52913.13, 52992.21, 52969.09, 28378.96, 28389.40, 28416.24, 28410.16, 0.00, 0.00, 0.00
126, 52884.72, 52889.21, 52967.84, 52945.00, 28370.42, 28380.81, 28407.99, 28401.73, 0.00, 0.00, 0.00
127, 53376.68, 53381.44, 53460.03, 53437.45, 28130.03, 28139.97, 28167.62, 28160.83, 0.00, 0.00, 0.00
128, 53458.87, 53463.00, 53542.28, 53519.55, 28111.07, 28121.04, 28148.69, 28141.85, 0.00, 0.00, 0.00
129, 52957.90, 52962.25, 53041.36, 53018.38, 28369.64, 28379.96, 28407.23, 28401.00, 0.01, 0.34, 0.91
130, 52814.76, 52819.20, 52897.88, 52874.84, 28411.28, 28421.67, 28448.96, 28442.64, 0.00, 0.00, 0.00
131, 53305.13, 53309.58, 53387.83, 53365.44, 28166.95, 28176.92, 28204.62, 28198.04, 0.00, 0.00, 0.00
132, 53517.00, 53521.23, 53600.18, 53577.62, 28089.23, 28099.05, 28126.74, 28120.15, 0.00, 0.00, 0.00
133, 53044.44, 53049.14, 53128.04, 53105.20, 28330.90, 28341.07, 28368.65, 28362.33, 0.00, 0.00, 0.00
134, 52797.10, 52801.95, 52880.79, 52857.65, 28433.83, 28444.29, 28471.49, 28465.33, 0.00, 0.00, 0.00
135, 53236.06, 53240.85, 53319.53, 53296.91, 28208.19, 28218.72, 28245.88, 28239.26, 0.00, 0.00, 0.00
136, 53552.54, 53557.08, 53635.87, 53613.54, 28079.58, 28089.73, 28116.95, 28110.20, 0.00, 0.00, 0.00
137, 53158.28, 53162.71, 53241.72, 53218.92, 28292.57, 28302.85, 28330.21, 28323.86, 0.00, 0.00, 0.00
138, 52805.05, 52809.44, 52888.43, 52865.32, 28447.33, 28457.97, 28485.04, 28478.89, 0.00, 0.00, 0.00
139, 53158.57, 53162.80, 53241.70, 53219.05, 28266.15, 28276.23, 28303.59, 28296.84, 0.00, 0.00, 0.00
140, 53580.55, 53584.98, 53663.43, 53641.41, 28078.57, 28088.65, 28116.10, 28109.17, 0.01, 0.34, 0.93
141, 53297.15, 53301.73, 53380.39, 53357.70, 28241.03, 28251.49, 28278.58, 28272.16, 0.00, 0.00, 0.00
142, 52859.15, 52863.57, 52942.47, 52919.34, 28438.26, 28448.83, 28475.99, 28470.00, 0.00, 0.00, 0.00
143, 53066.88, 53071.33, 53150.23, 53127.37, 28313.11, 28323.75, 28351.06, 28344.34, 0.00, 0.00, 0.00
144, 53527.89, 53531.91, 53610.66, 53588.77, 28098.85, 28109.17, 28136.55, 28129.51, 0.00, 0.00, 0.00
145, 53353.23, 53357.32, 53436.27, 53414.10, 28207.56, 28217.96, 28245.14, 28238.63, 0.00, 0.00, 0.00
146, 52847.21, 52851.28, 52930.32, 52907.54, 28435.71, 28446.08, 28473.24, 28466.91, 0.00, 0.00, 0.00
147, 52943.97, 52948.55, 53027.41, 53004.41, 28364.83, 28375.18, 28402.54, 28396.08, 0.00, 0.00, 0.00
148, 53466.24, 53470.82, 53549.66, 53527.02, 28130.03, 28140.17, 28167.91, 28160.87, 0.00, 0.00, 0.00
149, 53410.16, 53414.70, 53493.82, 53471.23, 28173.05, 28183.18, 28210.52, 28203.94, 0.00, 0.00, 0.00
150, 52869.79, 52874.95, 52953.80, 52930.58, 28434.68, 28445.57, 28472.50, 28466.24, 0.01, 0.36, 0.93
151, 52805.04, 52809.88, 52888.27, 52865.36, 28446.71, 28457.61, 28484.37, 28478.22, 0.00, 0.00, 0.00
152, 53269.93, 53274.40, 53353.16, 53330.88, 28228.93, 28239.01, 28266.55, 28260.20, 0.00, 0.00, 0.00
153, 53335.20, 53339.82, 53418.63, 53396.15, 28208.91, 28219.28, 28246.79, 28239.97, 0.00, 0.00, 0.00
154, 52833.51, 52837.93, 52916.86, 52893.86, 28439.53, 28449.93, 28476.86, 28470.76, 0.00, 0.00, 0.00
155, 52681.96, 52686.21, 52765.18, 52741.98, 28502.50, 28513.47, 28540.34, 28534.08, 0.00, 0.00, 0.00
156, 53156.09, 53160.38, 53238.79, 53216.51, 28260.72, 28271.31, 28298.43, 28291.81, 0.00, 0.00, 0.00
157, 53350.41, 53354.66, 53433.39, 53410.96, 28181.82, 28192.12, 28219.28, 28213.06, 0.00, 0.00, 0.00
158, 52900.30, 52904.99, 52984.12, 52960.87, 28414.70, 28425.56, 28452.74, 28446.35, 0.00, 0.00, 0.00
159, 52629.33, 52633.77, 52712.72, 52689.50, 28536.11, 28547.15, 28574.04, 28568.01, 0.00, 0.00, 0.00
160, 53033.82, 53038.41, 53116.97, 53094.36, 28330.59, 28341.09, 28368.23, 28361.66, 0.01, 0.34, 0.93
161, 53358.08, 53362.69, 53441.54, 53418.86, 28180.12, 28190.44, 28217.38, 28211.05, 0.00, 0.00, 0.00
162, 52985.84, 52989.97, 53069.50, 53046.45, 28378.20, 28388.97, 28416.11, 28409.49, 0.00, 0.00, 0.00
163, 52598.04, 52602.23, 52681.29, 52658.00, 28545.79, 28556.21, 28583.43, 28577.11, 0.00, 0.00, 0.00
164, 52915.14, 52919.41, 52998.20, 52975.18, 28376.12, 28386.40, 28413.74, 28407.32, 0.00, 0.00, 0.00
165, 53346.66, 53350.84, 53429.83, 53407.05, 28184.39, 28194.67, 28221.94, 28215.54, 0.00, 0.00, 0.00
166, 53017.31, 53021.64, 53100.68, 53077.86, 28331.97, 28342.53, 28369.59, 28363.38, 0.00, 0.00, 0.00
167, 52559.34, 52563.99, 52642.80, 52619.54, 28553.66, 28564.21, 28591.37, 28585.51, 0.00, 0.00, 0.00
168, 52805.46, 52810.15, 52888.83, 52866.07, 28448.85, 28459.67, 28486.69, 28480.48, 0.00, 0.00, 0.00
169, 53274.46, 53278.49, 53357.37, 53334.99, 28213.51, 28223.79, 28251.17, 28244.63, 0.00, 0.00, 0.00
170, 53118.14, 53122.25, 53201.48, 53178.62, 28298.67, 28308.84, 28336.27, 28329.74, 0.01, 0.35, 0.94
171, 52661.94, 52666.43, 52745.82, 52722.27, 28542.19, 28552.97, 28579.83, 28573.64, 0.00, 0.00, 0.00
172, 52745.31, 52750.14, 52828.93, 52806.02, 28471.36, 28481.78, 28508.84, 28502.79, 0.00, 0.00, 0.00
173, 53278.29, 53282.80, 53361.68, 53339.06, 28201.60, 28211.57, 28238.70, 28232.44, 0.00, 0.00, 0.00
174, 53287.43, 53291.77, 53370.89, 53348.14, 28223.57, 28233.56, 28260.52, 28254.39, 0.00, 0.00, 0.00
175, 52833.84, 52838.47, 52917.44, 52894.21, 28457.44, 28467.67, 28494.52, 28488.77, 0.00, 0.00, 0.00
176, 52818.15, 52822.85, 52901.64, 52878.70, 28434.79, 28445.37, 28472.23, 28466.35, 0.00, 0.00, 0.00
177, 53407.21, 53411.57, 53490.32, 53467.70, 28147.95, 28158.39, 28185.53, 28179.09, 0.00, 0.00, 0.00
178, 53606.50, 53610.84, 53689.87, 53667.34, 28084.77, 28095.16, 28122.38, 28115.72, 0.00, 0.00, 0.00
179, 53190.31, 53194.71, 53274.04, 53250.93, 28294.16, 28304.68, 28331.48, 28325.20, 0.00, 0.00, 0.00
180, 53023.39, 53027.88, 53106.60, 53083.56, 28328.11, 28338.81, 28365.44, 28359.38, 0.00, 0.00, 0.00
181, 53503.77, 53508.13, 53586.76, 53564.34, 28093.08, 28103.16, 28130.59, 28123.93, 0.00, 0.35, 0.95
182, 53702.63, 53707.15, 53786.25, 53764.04, 28037.49, 28047.66, 28075.47, 28068.56, 0.00, 0.00, 0.00
183, 53290.89, 53295.27, 53374.71, 53352.11, 28246.75, 28257.10, 28284.37, 28278.06, 0.00, 0.00, 0.00
184, 53248.69, 53253.23, 53332.29, 53309.54, 28278.91, 28289.15, 28316.28, 28310.03, 0.00, 0.00, 0.00
185, 53726.04, 53730.66, 53809.12, 53787.15, 28003.65, 28013.71, 28041.22, 28034.74, 0.00, 0.00, 0.00
186, 54129.04, 54133.66, 54212.68, 54190.53, 27844.33, 27854.59, 27882.08, 27875.60, 0.00, 0.00, 0.00
187, 53779.48, 53784.06, 53863.30, 53840.61, 28049.00, 28059.08, 28086.42, 28080.03, 0.00, 0.00, 0.00
188, 53502.77, 53507.23, 53586.27, 53563.47, 28169.72, 28179.98, 28206.87, 28200.79, 0.00, 0.00, 0.00
189, 53819.78, 53824.32, 53903.22, 53880.84, 27988.38, 27998.02, 28025.35, 28019.01, 0.00, 0.00, 0.00
190, 54298.49, 54303.02, 54381.95, 54360.22, 27788.56, 27798.33, 27826.15, 27819.27, 0.00, 0.00, 0.00
191, 54065.05, 54069.56, 54148.66, 54126.36, 27933.73, 27943.61, 27971.04, 27964.24, -0.02, 0.32, 0.91
192, 53611.42, 53615.82, 53695.48, 53672.44, 28151.71, 28162.13, 28189.39, 28182.82, 0.00, 0.00, 0.00
193, 53787.88, 53792.18, 53871.34, 53849.24, 28036.40, 28046.10, 28073.66, 28067.33, 0.00, 0.00, 0.00
194, 54273.81, 54278.44, 54357.61, 54335.59, 27806.84, 27816.61, 27844.37, 27837.78, 0.00, 0.00, 0.00
195, 54192.79, 54197.23, 54276.58, 54254.41, 27889.70, 27899.85, 27927.19, 27920.59, 0.00, 0.00, 0.00
196, 53708.54, 53712.96, 53792.89, 53769.98, 28131.59, 28141.85, 28168.88, 28162.66, 0.00, 0.00, 0.00
197, 53747.81, 53752.30, 53831.80, 53809.50, 28076.76, 28087.11, 28114.04, 28107.65, 0.00, 0.00, 0.00
198, 54261.20, 54265.63, 54344.71, 54323.14, 27824.12, 27833.84, 27861.54, 27854.81, 0.00, 0.00, 0.00
199, 54291.63, 54296.07, 54375.45, 54353.54, 27845.89, 27855.75, 27883.15, 27876.63, 0.00, 0.00, 0.00
200, 53783.77, 53788.49, 53868.11, 53845.29, 28091.63, 28102.04, 28128.91, 28122.81, 0.00, 0.00, 0.00
201, 53724.23, 53728.96, 53808.58, 53785.58, 28109.08, 28119.57, 28146.68, 28140.64, -0.01, 0.33, 0.91
202, 54261.45, 54266.10, 54345.38, 54323.03, 27859.64, 27869.76, 27896.96, 27890.37, 0.00, 0.00, 0.00
203, 54403.05, 54407.41, 54487.34, 54464.72, 27808.12, 27818.49, 27845.76, 27838.96, 0.00, 0.00, 0.00
204, 53866.50, 53871.05, 53950.70, 53927.94, 28043.03, 28053.32, 28080.67, 28073.90, 0.00, 0.00, 0.00
205, 53677.78, 53682.54, 53761.78, 53738.98, 28114.72, 28125.18, 28152.31, 28145.81, 0.00, 0.00, 0.00
206, 54149.89, 54154.41, 54233.31, 54211.34, 27885.52, 27895.56, 27922.87, 27916.03, 0.00, 0.00, 0.00
207, 54429.25, 54433.67, 54512.95, 54491.09, 27783.17, 27792.85, 27820.25, 27813.39, 0.00, 0.00, 0.00
208, 53993.16, 53997.63, 54077.16, 54054.59, 27992.45, 28002.58, 28029.73, 28023.07, 0.00, 0.00, 0.00
209, 53699.35, 53704.11, 53783.61, 53760.95, 28118.25, 28128.57, 28155.66, 28149.14, 0.00, 0.00, 0.00
210, 54122.89, 54127.21, 54206.80, 54184.18, 27906.42, 27916.50, 27943.88, 27937.22, 0.00, 0.00, 0.00
211, 54476.30, 54480.57, 54560.27, 54537.94, 27755.08, 27764.67, 27792.36, 27785.65, 0.00, 0.33, 0.94
212, 54119.92, 54124.32, 54204.16, 54181.30, 27950.61, 27960.53, 27987.71, 27981.12, 0.00, 0.00, 0.00
213, 53704.60, 53709.14, 53789.11, 53765.87, 28122.27, 28132.53, 28159.71, 28153.00, 0.00, 0.00, 0.00
214, 54015.74, 54020.75, 54100.14, 54077.56, 27953.07, 27963.28, 27990.71, 27983.67, 0.00, 0.00, 0.00
215, 54483.58, 54487.98, 54567.69, 54545.41, 27752.93, 27762.92, 27790.44, 27783.53, 0.00, 0.00, 0.00
216, 54230.67, 54234.94, 54314.94, 54292.18, 27874.50, 27884.61, 27912.05, 27905.35, 0.00, 0.00, 0.00
217, 53761.60, 53766.18, 53846.31, 53822.98, 28103.74, 28114.13, 28141.18, 28134.79, 0.00, 0.00, 0.00
218, 53936.19, 53940.97, 54020.45, 53997.72, 28001.06, 28011.09, 28038.61, 28031.90, 0.00, 0.00, 0.00
219, 54448.49, 54453.00, 54532.62, 54510.27, 27762.01, 27771.97, 27799.76, 27792.74, 0.00, 0.00, 0.00
220, 54357.05, 54361.36, 54441.11, 54418.88, 27837.06, 27847.34, 27874.59, 27867.77, 0.00, 0.00, 0.00
221, 53859.39, 53864.04, 53944.01, 53920.63, 28070.57, 28080.94, 28107.85, 28101.57, 0.00, 0.33, 0.94
222, 53898.50, 53903.64, 53983.28, 53960.21, 28029.62, 28039.73, 28067.08, 28060.69, 0.00, 0.00, 0.00
223, 54413.09, 54417.69, 54497.38, 54474.84, 27783.08, 27793.28, 27820.68, 27813.82, 0.00, 0.00, 0.00
224, 54433.89, 54438.52, 54518.23, 54495.77, 27792.20, 27802.35, 27829.51, 27822.85, 0.00, 0.00, 0.00
225, 53928.92, 53933.73, 54013.57, 53990.70, 28036.35, 28046.54, 28073.34, 28067.13, 0.00, 0.00, 0.00
226, 53854.94, 53859.32, 53939.16, 53916.41, 28056.36, 28066.59, 28093.50, 28087.04, 0.00, 0.00, 0.00
227, 54347.39, 54351.98, 54431.77, 54409.13, 27814.60, 27824.59, 27852.02, 27845.49, 0.00, 0.00, 0.00
228, 54503.43, 54508.01, 54587.83, 54565.52, 27764.40, 27774.30, 27801.79, 27794.88, 0.00, 0.00, 0.00
229, 54041.46, 54046.14, 54125.89, 54103.22, 27996.39, 28006.33, 28033.42, 28026.99, 0.00, 0.00, 0.00
230, 53867.88, 53872.71, 53952.44, 53929.37, 28084.85, 28095.05, 28122.09, 28115.72, 0.00, 0.00, 0.00
231, 54289.59, 54294.06, 54373.84, 54351.35, 27838.13, 27847.90, 27875.60, 27868.56, 0.00, 0.00, 0.00
232, 54544.40, 54548.74, 54628.82, 54606.54, 27729.86, 27739.59, 27767.30, 27760.44, 0.00, 0.34, 0.94
233, 54162.77, 54167.13, 54247.37, 54224.70, 27944.06, 27954.07, 27981.34, 27974.88, 0.00, 0.00, 0.00
234, 53821.46, 53826.22, 53906.24, 53883.04, 28075.69, 28085.81, 28113.08, 28106.83, 0.00, 0.00, 0.00
235, 54202.26, 54206.75, 54286.75, 54263.91, 27890.26, 27900.12, 27927.45, 27921.06, 0.00, 0.00, 0.00
236, 54594.87, 54599.05, 54679.27, 54656.72, 27724.30, 27734.22, 27761.47, 27754.79, 0.00, 0.00, 0.00
237, 54263.11, 54267.87, 54347.84, 54325.04, 27890.68, 27901.10, 27928.01, 27921.37, 0.00, 0.00, 0.00
238, 53850.13, 53854.71, 53934.60, 53911.47, 28067.17, 28077.68, 28104.10, 28098.22, 0.00, 0.00, 0.00
239, 54158.70, 54163.01, 54242.68, 54219.83, 27921.73, 27931.83, 27958.66, 27952.38, 0.00, 0.00, 0.00
240, 54606.94, 54611.10, 54691.07, 54668.63, 27720.39, 27730.45, 27757.83, 27750.88, 0.00, 0.00, 0.00
241, 54322.20, 54326.54, 54406.31, 54383.80, 27836.75, 27846.83, 27874.44, 27867.86, 0.00, 0.00, 0.00
242, 53885.83, 53890.37, 53970.36, 53947.07, 28065.47, 28075.94, 28103.00, 28096.92, 0.01, 0.35, 0.93
243, 54036.43, 54041.18, 54120.70, 54097.75, 27996.34, 28006.89, 28033.65, 28027.32, 0.00, 0.00, 0.00
244, 54571.71, 54576.32, 54655.80, 54633.56, 27740.99, 27751.28, 27778.26, 27771.68, 0.00, 0.00, 0.00
245, 54461.27, 54465.66, 54545.72, 54523.32, 27785.43, 27795.33, 27822.53, 27815.98, 0.00, 0.00, 0.00
246, 53949.91, 53954.29, 54034.43, 54011.40, 28028.60, 28038.88, 28065.99, 28059.71, 0.00, 0.00, 0.00
247, 53951.86, 53956.04, 54036.30, 54013.19, 28022.25, 28032.91, 28059.80, 28053.52, 0.00, 0.00, 0.00
248, 54469.63, 54473.97, 54554.13, 54531.62, 27781.79, 27791.80, 27819.18, 27812.12, 0.00, 0.00, 0.00
249, 54529.92, 54534.52, 54614.32, 54592.19, 27776.65, 27786.59, 27814.35, 27807.33, 0.00, 0.00, 0.00
250, 54022.69, 54026.80, 54107.22, 54084.07, 28013.42, 28023.86, 28051.01, 28044.24, 0.00, 0.00, 0.00
251, 53929.39, 53933.57, 54013.64, 53990.73, 28049.40, 28059.80, 28086.80, 28080.56, 0.00, 0.00, 0.00
252, 54423.52, 54427.57, 54507.27, 54485.06, 27799.29, 27809.44, 27836.59, 27830.18, 0.04, 0.38, 0.94
253, 54561.79, 54566.11, 54646.01, 54623.73, 27733.62, 27743.61, 27770.83, 27764.22, 0.00, 0.00, 0.00
254, 54119.18, 54123.47, 54203.45, 54180.71, 27969.32, 27979.62, 28006.94, 28000.50, 0.00, 0.00, 0.00
255, 53892.71, 53897.07, 53976.91, 53954.05, 28060.71, 28071.22, 28098.11, 28091.92, 0.00, 0.00, 0.00
0, 54330.74, 54335.48, 54415.21, 54392.92, 27848.15, 27858.56, 27885.92, 27879.40, 0.00, 0.00, 0.00
1, 54621.61, 54626.05, 54706.23, 54683.92, 27729.24, 27739.30, 27766.68, 27759.86, 0.00, 0.00, 0.00
2, 54219.94, 54224.10, 54304.54, 54281.68, 27925.87, 27936.08, 27963.06, 27956.38, 0.00, 0.00, 0.00
3, 53886.90, 53891.42, 53971.14, 53948.17, 28071.76, 28082.26, 28109.08, 28102.54, 0.00, 0.00, 0.00
4, 54223.99, 54228.30, 54308.25, 54285.48, 27889.16, 27899.42, 27926.51, 27919.81, 0.00, 0.00, 0.00
5, 54613.65, 54618.07, 54698.02, 54675.47, 27714.55, 27724.57, 27751.93, 27745.02, 0.00, 0.00, 0.00
6, 54323.99, 54328.93, 54408.93, 54385.84, 27874.39, 27884.18, 27911.36, 27904.81, 0.03, 0.38, 0.91
7, 53910.59, 53915.31, 53995.40, 53972.15, 28063.62, 28073.70, 28100.93, 28094.49, 0.00, 0.00, 0.00
8, 54144.82, 54149.45, 54229.38, 54206.69, 27928.71, 27938.85, 27966.30, 27959.46, 0.00, 0.00, 0.00
9, 54610.29, 54614.72, 54694.58, 54672.61, 27721.73, 27731.83, 27759.17, 27752.57, 0.00, 0.00, 0.00
10, 54416.91, 54421.42, 54501.60, 54479.04, 27830.27, 27840.37, 27867.26, 27860.82, 0.00, 0.00, 0.00
11, 53934.27, 53938.98, 54018.98, 53995.84, 28048.94, 28059.55, 28085.99, 28079.78, 0.00, 0.00, 0.00
12, 54062.59, 54067.10, 54146.74, 54123.94, 27974.77, 27985.25, 28012.12, 28005.57, 0.00, 0.00, 0.00
13, 54567.96, 54572.21, 54652.20, 54629.76, 27728.66, 27738.60, 27766.23, 27759.14, 0.00, 0.00, 0.00
14, 54514.70, 54519.10, 54599.34, 54576.83, 27777.92, 27787.80, 27815.43, 27808.32, 0.00, 0.00, 0.00
15, 53996.23, 54000.65, 54080.89, 54057.74, 28013.84, 28024.33, 28051.28, 28044.98, 0.00, 0.00, 0.00
16, 53994.01, 53998.77, 54078.23, 54055.52, 28006.98, 28017.44, 28044.24, 28037.89, 0.00, 0.00, 0.00
17, 54487.05, 54491.56, 54571.07, 54548.89, 27773.65, 27783.42, 27810.67, 27803.87, 0.03, 0.37, 0.93
18, 54581.80, 54586.22, 54665.93, 54643.71, 27740.28, 27750.05, 27777.25, 27770.68, 0.00, 0.00, 0.00
19, 54068.44, 54072.87, 54152.82, 54129.78, 27982.26, 27992.23, 28019.50, 28013.17, 0.00, 0.00, 0.00
20, 53937.26, 53941.87, 54022.00, 53998.68, 28030.88, 28041.02, 28068.16, 28061.68, 0.00, 0.00, 0.00
21, 54415.27, 54419.75, 54499.59, 54476.92, 27800.03, 27810.11, 27837.13, 27830.56, 0.00, 0.00, 0.00
22, 54582.89, 54587.36, 54667.40, 54644.94, 27735.47, 27745.42, 27772.55, 27766.30, 0.00, 0.00, 0.00
23, 54145.16, 54149.54, 54229.82, 54207.00, 27963.17, 27973.50, 28000.32, 27994.42, 0.00, 0.00, 0.00
24, 53913.39, 53917.75, 53997.97, 53974.90, 28066.50, 28077.28, 28104.26, 28097.79, 0.00, 0.00, 0.00
25, 54345.31, 54349.98, 54430.14, 54407.34, 27855.68, 27866.10, 27893.54, 27886.77, 0.00, 0.00, 0.00
26, 54643.15, 54648.14, 54727.82, 54705.76, 27724.23, 27734.31, 27761.69, 27754.81, 0.00, 0.00, 0.00
27, 54275.13, 54279.96, 54360.09, 54337.27, 27927.79, 27937.85, 27965.14, 27958.50, 0.03, 0.35, 0.93
28, 53913.88, 53918.46, 53998.62, 53975.41, 28086.46, 28096.86, 28123.81, 28117.55, 0.00, 0.00, 0.00
29, 54238.88, 54243.86, 54323.32, 54300.72, 27907.25, 27917.22, 27944.37, 27938.18, 0.00, 0.00, 0.00
30, 54643.29, 54648.29, 54728.00, 54705.51, 27704.94, 27714.80, 27742.02, 27735.41, 0.00, 0.00, 0.00
31, 54369.75, 54374.37, 54454.84, 54431.43, 27850.03, 27860.17, 27887.15, 27880.87, 0.00, 0.00, 0.00
32, 53939.23, 53943.96, 54024.19, 54000.85, 28047.50, 28057.83, 28084.70, 28078.64, 0.00, 0.00, 0.00
33, 54168.02, 54173.00, 54252.64, 54229.98, 27923.41, 27933.49, 27960.45, 27953.65, 0.00, 0.00, 0.00
34, 54645.01, 54649.77, 54729.47, 54707.03, 27702.95, 27712.56, 27740.08, 27733.17, 0.00, 0.00, 0.00
35, 54481.66, 54486.46, 54566.66, 54543.82, 27801.68, 27811.45, 27838.52, 27832.57, 0.00, 0.00, 0.00
36, 53990.66, 53995.46, 54075.86, 54052.64, 28032.95, 28043.08, 28069.86, 28063.71, 0.00, 0.00, 0.00
37, 54098.51, 54103.00, 54183.00, 54159.95, 27972.27, 27982.44, 28009.60, 28002.89, 0.01, 0.34, 0.90
38, 54647.51, 54652.00, 54731.98, 54709.34, 27733.02, 27742.96, 27770.34, 27763.55, 0.00, 0.00, 0.00
39, 54613.02, 54617.56, 54698.38, 54674.96, 27759.10, 27768.89, 27796.70, 27789.68, 0.00, 0.00, 0.00
40, 54180.61, 54185.34, 54268.78, 54242.61, 28022.18, 28032.60, 28060.04, 28053.32, 0.00, 0.00, 0.00
41, 54297.17, 54302.02, 54386.60, 54359.29, 28021.40, 28031.93, 28058.88, 28052.47, 0.00, 0.00, 0.00
42, 54943.27, 54947.78, 55033.57, 55005.72, 27763.79, 27774.21, 27801.26, 27794.66, 0.00, 0.00, 0.00
43, 55109.09, 55113.34, 55199.89, 55171.46, 27767.10, 27777.36, 27804.59, 27797.88, 0.00, 0.00, 0.00
44, 54589.98, 54594.56, 54681.20, 54652.18, 28075.27, 28085.50, 28112.32, 28106.33, 0.00, 0.00, 0.00
45, 54426.23, 54430.72, 54517.54, 54488.10, 28148.56, 28159.26, 28185.79, 28179.94, 0.00, 0.00, 0.00
46, 54841.39, 54845.95, 54932.52, 54903.82, 27940.19, 27950.61, 27977.39, 27971.06, 0.00, 0.00, 0.00
47, 55152.35, 55157.04, 55243.92, 55215.22, 27845.31, 27855.57, 27882.71, 27876.04, 0.01, 0.35, 0.91
48, 54755.45, 54760.23, 54848.45, 54817.94, 28088.79, 28099.12, 28126.23, 28119.79, 0.00, 0.00, 0.00
49, 54629.02, 54633.88, 54722.97, 54691.14, 28169.84, 28180.56, 28207.36, 28201.40, 0.00, 0.00, 0.00
50, 55300.54, 55305.23, 55395.42, 55363.32, 27903.65, 27913.68, 27940.89, 27934.38, 0.00, 0.00, 0.00
51, 55797.89, 55802.36, 55894.11, 55861.16, 27763.19, 27773.07, 27800.34, 27793.68, 0.00, 0.00, 0.00
52, 55537.69, 55542.36, 55634.16, 55600.92, 27966.97, 27977.37, 28004.43, 27998.26, 0.00, 0.00, 0.00
53, 55259.63, 55264.55, 55355.86, 55322.76, 28125.45, 28136.02, 28163.09, 28156.74, 0.00, 0.00, 0.00
54, 55567.53, 55572.61, 55663.26, 55630.63, 27952.00, 27961.99, 27989.03, 27982.46, 0.00, 0.00, 0.00
55, 56046.46, 56051.27, 56142.24, 56109.87, 27750.65, 27760.44, 27787.55, 27780.69, 0.00, 0.00, 0.00
56, 55810.74, 55815.52, 55907.28, 55874.15, 27900.07, 27910.42, 27937.56, 27930.87, 0.00, 0.00, 0.00
57, 55395.51, 55400.23, 55492.76, 55458.61, 28109.22, 28119.39, 28146.57, 28140.35, -0.03, 0.35, 0.93
58, 55676.99, 55682.06, 55774.82, 55740.73, 27996.14, 28006.49, 28033.71, 28027.16, 0.00, 0.00, 0.00
59, 56268.12, 56272.84, 56366.36, 56332.00, 27765.29, 27775.57, 27803.04, 27796.38, 0.00, 0.00, 0.00
60, 56198.90, 56203.66, 56297.70, 56262.60, 27857.04, 27867.35, 27894.44, 27887.80, 0.00, 0.00, 0.00
61, 55737.94, 55742.75, 55836.85, 55801.42, 28107.77, 28118.00, 28145.14, 28138.88, 0.00, 0.00, 0.00
62, 55813.78, 55818.54, 55911.79, 55877.37, 28041.87, 28052.06, 28079.42, 28073.10, 0.00, 0.00, 0.00
63, 56362.29, 56367.25, 56460.13, 56426.55, 27783.20, 27793.19, 27820.41, 27813.71, 0.00, 0.00, 0.00
64, 56364.53, 56369.62, 56462.54, 56428.79, 27812.34, 27822.45, 27849.33, 27842.96, 0.00, 0.00, 0.00
65, 55830.70, 55835.46, 55928.85, 55894.34, 28072.58, 28083.02, 28109.75, 28103.50, 0.00, 0.00, 0.00
66, 55779.56, 55783.98, 55877.08, 55843.11, 28067.04, 28077.52, 28104.70, 28098.06, 0.00, 0.00, 0.00
67, 56295.17, 56299.71, 56392.36, 56359.12, 27805.59, 27815.83, 27843.14, 27836.53, 0.00, 0.00, 0.00
68, 56418.30, 56423.09, 56515.73, 56482.23, 27774.57, 27784.51, 27812.03, 27805.21, -0.03, 0.34, 0.94
69, 55903.59, 55908.64, 56001.54, 55967.22, 28028.60, 28038.88, 28065.83, 28059.46, 0.00, 0.00, 0.00
70, 55712.86, 55717.78, 55810.67, 55776.41, 28127.41, 28137.80, 28164.56, 28158.15, 0.00, 0.00, 0.00
71, 56186.92, 56191.90, 56284.35, 56250.69, 27879.51, 27889.68, 27916.84, 27910.38, 0.00, 0.00, 0.00
72, 56448.12, 56453.08, 56546.00, 56512.27, 27779.26, 27789.43, 27816.66, 27810.13, 0.00, 0.00, 0.00
73, 56007.01, 56011.77, 56104.96, 56070.80, 27997.15, 28007.79, 28034.70, 28028.53, 0.00, 0.00, 0.00
74, 55698.36, 55703.50, 55795.68, 55762.15, 28122.79, 28133.20, 28159.93, 28153.96, 0.00, 0.00, 0.00
75, 56122.05, 56126.99, 56218.88, 56186.00, 27912.63, 27922.71, 27949.54, 27943.32, 0.00, 0.00, 0.00
76, 56437.84, 56442.13, 56534.24, 56501.65, 27753.42, 27763.19, 27790.50, 27783.80, 0.00, 0.00, 0.00
77, 56017.63, 56022.03, 56114.63, 56081.40, 27979.35, 27989.37, 28016.48, 28010.18, 0.00, 0.00, 0.00
78, 55629.22, 55634.21, 55726.47, 55692.92, 28138.52, 28149.41, 28176.09, 28170.10, -0.01, 0.34, 0.94
79, 55936.33, 55941.18, 56032.71, 56000.15, 27968.47, 27979.11, 28006.15, 27999.69, 0.00, 0.00, 0.00
80, 56373.42, 56378.38, 56469.47, 56437.77, 27761.11, 27771.33, 27798.64, 27791.62, 0.00, 0.00, 0.00
81, 56073.89, 56078.58, 56170.16, 56137.81, 27908.03, 27918.40, 27945.36, 27939.10, 0.00, 0.00, 0.00
82, 55573.12, 55577.59, 55669.72, 55636.53, 28150.70, 28160.92, 28187.87, 28182.08, 0.00, 0.00, 0.00
83, 55792.59, 55797.35, 55889.08, 55856.09, 28038.12, 28048.11, 28075.36, 28068.92, 0.00, 0.00, 0.00
84, 56297.02, 56301.58, 56392.78, 56360.68, 27782.10, 27792.05, 27819.12, 27812.41, 0.00, 0.00, 0.00
85, 56135.27, 56139.94, 56231.33, 56199.23, 27858.19, 27868.22, 27895.22, 27888.67, 0.00, 0.00, 0.00
86, 55584.00, 55588.81, 55680.38, 55647.37, 28107.34, 28117.64, 28144.40, 28138.43, 0.00, 0.00, 0.00
87, 55683.04, 55687.83, 55779.63, 55746.41, 28068.07, 28078.64, 28105.73, 28099.61, 0.00, 0.00, 0.00
88, 56247.78, 56252.77, 56344.45, 56311.60, 27799.94, 27810.13, 27837.71, 27830.92, -0.03, 0.34, 0.94
89, 56254.45, 56259.12, 56351.56, 56318.14, 27810.93, 27820.88, 27848.10, 27841.62, 0.00, 0.00, 0.00
90, 55735.68, 55739.97, 55832.00, 55798.71, 28087.22, 28097.44, 28124.15, 28118.20, 0.00, 0.00, 0.00
91, 55612.46, 55616.93, 55707.50, 55675.64, 28107.68, 28117.82, 28144.91, 28138.61, 0.00, 0.00, 0.00
92, 56017.89, 56022.57, 56110.72, 56081.73, 27840.01, 27849.89, 27877.27, 27870.48, 0.00, 0.00, 0.00
93, 55989.33, 55994.14, 56079.39, 56052.90, 27790.77, 27800.56, 27828.01, 27821.19, 0.00, 0.00, 0.00
94, 55237.60, 55242.51, 55325.01, 55300.52, 28047.48, 28057.52, 28084.54, 28078.21, 0.00, 0.00, 0.00
95, 54817.83, 54822.73, 54904.36, 54880.57, 28133.27, 28143.57, 28170.42, 28164.07, 0.00, 0.00, 0.00
96, 55160.15, 55165.07, 55246.58, 55223.20, 27880.54, 27890.95, 27917.75, 27911.20, 0.00, 0.00, 0.00
97, 55330.64, 55335.43, 55416.93, 55393.79, 27759.61, 27770.05, 27796.88, 27790.64, 0.00, 0.00, 0.00
98, 54787.45, 54792.04, 54873.22, 54849.79, 27989.68, 28000.28, 28027.28, 28020.73, -0.01, 0.36, 0.92
99, 54362.14, 54366.86, 54447.75, 54424.28, 28132.42, 28142.88, 28169.93, 28163.46, 0.00, 0.00, 0.00
100, 54720.33, 54724.85, 54805.71, 54782.71, 27916.50, 27926.69, 27953.83, 27947.48, 0.00, 0.00, 0.00
101, 55067.34, 55071.52, 55152.48, 55129.82, 27750.99, 27761.31, 27788.27, 27781.92, 0.00, 0.00, 0.00
102, 54634.68, 54639.22, 54720.29, 54696.84, 27951.71, 27962.41, 27989.52, 27983.38, 0.00, 0.00, 0.00
103, 54185.72, 54190.35, 54271.29, 54247.68, 28149.90, 28160.45, 28187.25, 28181.03, 0.00, 0.00, 0.00
104, 54495.29, 54499.77, 54580.19, 54557.14, 27971.26, 27981.37, 28008.59, 28001.68, 0.00, 0.00, 0.00
105, 54935.16, 54939.49, 55019.44, 54996.80, 27723.63, 27733.57, 27761.11, 27754.07, 0.00, 0.00, 0.00
106, 54677.24, 54681.33, 54762.04, 54739.04, 27857.47, 27867.77, 27895.09, 27888.29, 0.00, 0.00, 0.00
107, 54133.15, 54137.40, 54218.42, 54194.66, 28115.68, 28126.07, 28153.05, 28146.66, 0.00, 0.00, 0.00
108, 54309.62, 54313.95, 54394.46, 54371.02, 28001.13, 28011.52, 28038.63, 28032.28, 0.00, 0.00, 0.00
109, 54885.36, 54889.60, 54970.18, 54947.52, 27741.69, 27751.90, 27779.26, 27772.87, -0.01, 0.34, 0.92
110, 54790.41, 54794.61, 54875.39, 54852.63, 27805.35, 27815.58, 27843.08, 27836.37, 0.00, 0.00, 0.00
111, 54135.45, 54140.08, 54220.28, 54196.96, 28073.54, 28083.65, 28111.07, 28104.55, 0.00, 0.00, 0.00
112, 54181.14, 54185.61, 54265.70, 54242.52, 28054.70, 28065.05, 28091.94, 28085.48, 0.00, 0.00, 0.00
113, 54758.93, 54763.02, 54844.43, 54821.00, 27778.70, 27788.72, 27816.03, 27808.99, 0.00, 0.00, 0.00
114, 54798.16, 54802.77, 54884.77, 54860.75, 27797.63, 27807.42, 27834.94, 27828.37, 0.00, 0.00, 0.00
115, 54267.13, 54272.13, 54353.92, 54329.47, 28069.39, 28079.49, 28106.83, 28100.48, 0.00, 0.00, 0.00
116, 54137.91, 54142.61, 54223.96, 54199.87, 28090.51, 28100.70, 28127.84, 28121.71, 0.00, 0.00, 0.00
117, 54690.45, 54694.79, 54776.01, 54752.74, 27825.64, 27835.61, 27862.88, 27856.35, 0.00, 0.00, 0.00
118, 54878.87, 54883.37, 54964.52, 54941.14, 27753.58, 27763.55, 27790.62, 27783.64, 0.00, 0.00, 0.00
119, 54346.16, 54350.81, 54432.08, 54408.19, 28015.88, 28025.94, 28052.80, 28046.43, -0.01, 0.34, 0.93
120, 54118.22, 54122.91, 54204.01, 54180.00, 28120.59, 28131.21, 28158.15, 28151.93, 0.00, 0.00, 0.00
121, 54536.46, 54541.16, 54621.14, 54598.52, 27855.70, 27865.92, 27893.50, 27886.46, 0.00, 0.00, 0.00
122, 54837.75, 54841.99, 54922.10, 54899.97, 27727.00, 27737.29, 27764.71, 27757.31, 0.00, 0.00, 0.00
123, 54372.20, 54376.70, 54457.45, 54434.45, 27953.07, 27963.26, 27990.35, 27983.98, 0.00, 0.00, 0.00
124, 53982.14, 53987.15, 54067.28, 54043.86, 28102.13, 28112.50, 28139.30, 28132.98, 0.00, 0.00, 0.00
125, 54376.16, 54380.92, 54460.83, 54438.14, 27910.33, 27920.19, 27947.46, 27941.13, 0.00, 0.00, 0.00
126, 54784.14, 54788.64, 54868.75, 54846.57, 27721.15, 27730.98, 27758.54, 27751.93, 0.00, 0.00, 0.00
127, 54389.01, 54393.48, 54473.90, 54450.86, 27903.56, 27913.71, 27940.69, 27934.29, 0.00, 0.00, 0.00
128, 53930.46, 53935.11, 54015.40, 53992.13, 28121.73, 28131.99, 28158.99, 28152.67, 0.00, 0.00, 0.00
129, 54213.68, 54218.42, 54298.33, 54275.62, 27964.45, 27974.41, 28001.57, 27995.34, 0.01, 0.34, 0.93
130, 54733.63, 54738.39, 54818.72, 54795.97, 27737.42, 27746.96, 27774.12, 27767.88, 0.00, 0.00, 0.00
131, 54480.79, 54485.13, 54566.04, 54542.77, 27856.08, 27866.01, 27893.34, 27887.18, 0.00, 0.00, 0.00
132, 53931.25, 53935.61, 54016.41, 53992.71, 28102.67, 28113.33, 28140.20, 28133.98, 0.00, 0.00, 0.00
133, 54110.33, 54115.11, 54195.27, 54172.25, 28017.82, 28028.33, 28055.37, 28048.87, 0.00, 0.00, 0.00
134, 54661.03, 54665.32, 54745.30, 54723.21, 27758.79, 27768.78, 27795.91, 27789.52, 0.00, 0.00, 0.00
135, 54588.84, 54593.39, 54673.77, 54651.45, 27821.13, 27831.23, 27858.10, 27851.75, 0.00, 0.00, 0.00
136, 54043.01, 54047.54, 54128.10, 54104.83, 28081.37, 28091.63, 28118.67, 28112.71, 0.00, 0.00, 0.00
137, 53997.61, 54002.08, 54082.21, 54059.23, 28080.00, 28090.29, 28117.33, 28111.30, 0.00, 0.00, 0.00
138, 54544.51, 54548.69, 54628.76, 54606.52, 27802.08, 27811.96, 27839.16, 27832.79, 0.00, 0.00, 0.00
139, 54636.47, 54640.83, 54721.20, 54698.52, 27787.49, 27797.28, 27824.63, 27818.02, 0.01, 0.34, 0.93
140, 54096.70, 54101.17, 54181.70, 54158.23, 28052.91, 28063.04, 28090.06, 28083.80, 0.00, 0.00, 0.00
141, 53925.93, 53930.87, 54010.93, 53987.57, 28101.42, 28111.77, 28138.56, 28132.64, 0.00, 0.00, 0.00
142, 54449.47, 54454.28, 54534.43, 54511.54, 27843.41, 27853.49, 27880.54, 27874.23, 0.00, 0.00, 0.00
143, 54641.03, 54645.52, 54725.92, 54703.48, 27762.32, 27772.00, 27799.45, 27792.70, 0.00, 0.00, 0.00
144, 54122.24, 54126.94, 54207.20, 54184.29, 28015.92, 28025.80, 28053.29, 28046.77, 0.00, 0.00, 0.00
145, 53875.93, 53880.73, 53960.86, 53937.53, 28113.60, 28124.21, 28151.22, 28145.00, 0.00, 0.00, 0.00
146, 54342.74, 54347.62, 54427.48, 54404.88, 27871.44, 27882.01, 27909.06, 27902.64, 0.00, 0.00, 0.00
147, 54668.79, 54673.55, 54753.52, 54731.39, 27736.37, 27746.54, 27773.49, 27767.30, 0.00, 0.00, 0.00
148, 54257.32, 54261.83, 54342.43, 54319.36, 27962.93, 27972.94, 27999.83, 27993.77, 0.00, 0.00, 0.00
149, 53871.48, 53876.53, 53956.62, 53933.28, 28124.46, 28134.50, 28161.36, 28155.31, 0.01, 0.34, 0.94
150, 54212.59, 54217.64, 54297.26, 54274.62, 27921.69, 27931.59, 27958.50, 27952.17, 0.00, 0.00, 0.00
151, 54661.95, 54666.64, 54746.86, 54724.13, 27733.75, 27743.72, 27770.70, 27764.06, 0.00, 0.00, 0.00
152, 54342.30, 54346.68, 54427.46, 54404.21, 27919.99, 27930.38, 27957.09, 27950.99, 0.00, 0.00, 0.00
153, 53863.54, 53868.20, 53948.68, 53925.46, 28132.82, 28143.55, 28170.15, 28163.89, 0.00, 0.00, 0.00
154, 54126.65, 54131.21, 54211.20, 54188.20, 27978.66, 27989.10, 28016.12, 28009.33, 0.00, 0.00, 0.00
155, 54689.15, 54693.62, 54773.51, 54751.22, 27739.05, 27749.18, 27776.47, 27769.56, 0.00, 0.00, 0.00
156, 54451.48, 54456.16, 54536.60, 54513.49, 27847.97, 27858.25, 27885.03, 27878.50, 0.00, 0.00, 0.00
157, 53928.01, 53932.99, 54013.46, 53989.95, 28097.79, 28108.61, 28135.37, 28129.20, 0.00, 0.00, 0.00
158, 54085.09, 54089.92, 54170.14, 54147.01, 28017.53, 28028.24, 28054.93, 28048.71, 0.00, 0.00, 0.00
159, 54629.36, 54633.90, 54714.12, 54691.83, 27748.97, 27759.17, 27786.14, 27779.51, 0.00, 0.00, 0.00
160, 54563.69, 54567.82, 54649.10, 54625.92, 27796.88, 27807.09, 27834.07, 27827.43, 0.01, 0.34, 0.93
161, 54116.45, 54120.86, 54204.48, 54178.14, 28064.20, 28074.66, 28101.82, 28095.61, 0.00, 0.00, 0.00
162, 54240.42, 54244.98, 54330.07, 54302.00, 28049.63, 28059.44, 28087.04, 28080.47, 0.00, 0.00, 0.00
163, 54957.30, 54962.00, 55047.29, 55019.58, 27766.48, 27776.24, 27803.92, 27796.83, 0.00, 0.00, 0.00
164, 55128.92, 55133.84, 55218.84, 55191.82, 27744.06, 27754.45, 27781.61, 27774.93, 0.00, 0.00, 0.00
165, 54654.66, 54659.65, 54745.28, 54717.09, 28024.71, 28035.19, 28062.08, 28055.95, 0.00, 0.00, 0.00
166, 54589.21, 54594.13, 54680.32, 54651.58, 28071.38, 28081.70, 28109.02, 28102.56, 0.00, 0.00, 0.00
167, 55131.05, 55135.67, 55222.06, 55193.61, 27823.81, 27833.89, 27861.40, 27854.72, 0.00, 0.00, 0.00
168, 55443.97, 55448.55, 55535.41, 55506.51, 27721.01, 27731.50, 27758.99, 27751.99, 0.00, 0.00, 0.00
169, 55037.46, 55041.97, 55129.41, 55099.86, 27958.97, 27969.77, 27996.54, 27989.88, 0.00, 0.00, 0.00
170, 54805.69, 54810.30, 54897.83, 54868.12, 28071.46, 28082.08, 28108.97, 28102.36, -0.01, 0.30, 0.88
171, 55329.89, 55334.89, 55422.82, 55393.07, 27848.28, 27858.34, 27885.57, 27878.97, 0.00, 0.00, 0.00
172, 55725.64, 55730.30, 55818.90, 55789.08, 27700.27, 27710.28, 27737.84, 27730.76, 0.00, 0.00, 0.00
173, 55398.95, 55403.67, 55492.54, 55462.01, 27890.64, 27900.81, 27928.04, 27921.37, 0.00, 0.00, 0.00
174, 55113.50, 55118.08, 55207.22, 55176.38, 28039.44, 28049.87, 28076.74, 28070.57, 0.00, 0.00, 0.00
175, 55539.23, 55543.93, 55632.89, 55602.33, 27839.48, 27849.80, 27877.14, 27870.61, 0.00, 0.00, 0.00
176, 56018.48, 56022.95, 56111.88, 56081.84, 27640.19, 27650.20, 27677.99, 27671.01, 0.00, 0.00, 0.00
177, 55725.02, 55729.69, 55819.25, 55788.52, 27817.44, 27827.45, 27854.72, 27848.15, 0.00, 0.00, 0.00
178, 55239.52, 55244.19, 55333.91, 55302.64, 28054.32, 28064.65, 28091.52, 28085.28, 0.00, 0.00, 0.00
179, 55502.13, 55506.75, 55595.25, 55565.23, 27896.12, 27906.35, 27933.22, 27926.76, 0.00, 0.00, 0.00
180, 56003.59, 56008.33, 56096.30, 56066.98, 27651.16, 27660.89, 27688.40, 27681.76, -0.00, 0.34, 0.92
181, 55833.65, 55838.21, 55926.63, 55896.82, 27764.87, 27774.81, 27802.08, 27795.71, 0.00, 0.00, 0.00
182, 55302.75, 55307.60, 55396.18, 55365.76, 28024.82, 28035.32, 28062.48, 28056.27, 0.00, 0.00, 0.00
183, 55399.96, 55404.96, 55492.94, 55463.19, 27953.54, 27963.78, 27991.00, 27984.25, 0.00, 0.00, 0.00
184, 55966.17, 55970.53, 56058.57, 56029.79, 27685.56, 27695.67, 27722.71, 27716.27, 0.00, 0.00, 0.00
185, 55937.88, 55942.41, 56030.55, 56001.27, 27720.43, 27730.74, 27757.85, 27751.16, 0.00, 0.00, 0.00
186, 55363.08, 55368.00, 55455.86, 55426.00, 27986.69, 27997.21, 28024.19, 28017.96, 0.00, 0.00, 0.00
187, 55347.03, 55352.02, 55439.88, 55410.06, 27973.10, 27983.22, 28010.49, 28004.12, 0.00, 0.00, 0.00
188, 55929.85, 55934.59, 56022.48, 55993.60, 27704.23, 27714.06, 27741.44, 27734.49, 0.00, 0.00, 0.00
189, 56037.43, 56041.92, 56129.99, 56101.00, 27681.88, 27691.87, 27719.31, 27712.56, 0.00, 0.00, 0.00
190, 55496.99, 55501.61, 55590.33, 55560.18, 27941.15, 27951.50, 27978.71, 27972.54, -0.02, 0.37, 0.92
191, 55347.95, 55352.55, 55441.24, 55411.27, 27996.99, 28007.09, 28034.47, 28028.17, 0.00, 0.00, 0.00
192, 55874.33, 55878.82, 55967.36, 55938.17, 27735.16, 27745.42, 27772.67, 27766.07, 0.00, 0.00, 0.00
193, 56150.55, 56155.00, 56243.89, 56214.52, 27644.81, 27654.76, 27682.21, 27675.55, 0.00, 0.00, 0.00
194, 55647.04, 55651.73, 55740.24, 55710.63, 27883.98, 27893.84, 27921.20, 27914.87, 0.00, 0.00, 0.00
195, 55301.54, 55306.28, 55393.77, 55364.62, 28010.45, 28020.55, 28048.00, 28041.40, 0.00, 0.00, 0.00
196, 55723.41, 55728.08, 55814.98, 55786.58, 27772.11, 27782.05, 27809.57, 27802.57, 0.00, 0.00, 0.00
197, 55998.67, 56003.30, 56089.29, 56062.04, 27627.07, 27636.79, 27664.08, 27657.49, 0.00, 0.00, 0.00
198, 55539.14, 55543.59, 55629.98, 55602.33, 27833.46, 27843.48, 27870.39, 27864.18, 0.00, 0.00, 0.00
199, 55109.86, 55114.35, 55200.63, 55172.80, 28011.07, 28021.35, 28048.13, 28042.14, 0.00, 0.00, 0.00
200, 55419.05, 55423.81, 55509.41, 55482.28, 27820.46, 27830.47, 27857.54, 27851.19, 0.00, 0.00, 0.00
201, 55878.53, 55883.11, 55969.32, 55942.10, 27612.52, 27622.29, 27649.71, 27642.98, -0.05, 0.38, 0.94
202, 55572.67, 55577.48, 55664.00, 55635.88, 27779.89, 27789.90, 27816.90, 27810.55, 0.00, 0.00, 0.00
203, 55090.97, 55095.64, 55182.14, 55153.69, 28003.58, 28013.69, 28040.60, 28034.63, 0.00, 0.00, 0.00
204, 55285.68, 55290.08, 55375.53, 55348.53, 27876.51, 27886.62, 27913.95, 27907.43, 0.00, 0.00, 0.00
205, 55747.53, 55752.13, 55837.18, 55811.03, 27632.77, 27642.47, 27669.87, 27663.21, 0.00, 0.00, 0.00
206, 55569.99, 55574.88, 55660.60, 55633.47, 27740.28, 27750.25, 27777.34, 27770.72, 0.00, 0.00, 0.00
207, 55041.32, 55046.22, 55132.54, 55104.18, 27997.97, 28008.32, 28035.14, 28028.51, 0.00, 0.00, 0.00
208, 55150.04, 55154.92, 55241.13, 55213.05, 27949.47, 27959.44, 27986.57, 27980.27, 0.00, 0.00, 0.00
209, 55711.54, 55716.39, 55802.04, 55775.04, 27679.64, 27689.43, 27716.81, 27710.15, 0.00, 0.00, 0.00
210, 55694.00, 55698.55, 55784.86, 55757.48, 27702.93, 27713.23, 27740.35, 27733.62, 0.00, 0.00, 0.00
211, 55139.94, 55144.79, 55231.23, 55203.13, 27969.09, 27979.78, 28006.69, 28000.21, -0.05, 0.37, 0.93
212, 55083.59, 55088.33, 55174.25, 55146.18, 27990.02, 28000.63, 28027.88, 28021.20, 0.00, 0.00, 0.00
213, 55633.56, 55637.91, 55723.88, 55696.43, 27730.65, 27740.77, 27768.31, 27761.49, 0.00, 0.00, 0.00
214, 55766.77, 55771.58, 55857.52, 55830.18, 27677.56, 27687.53, 27714.93, 27707.98, 0.00, 0.00, 0.00
215, 55253.51, 55258.74, 55345.38, 55316.88, 27927.86, 27937.94, 27964.87, 27958.68, 0.00, 0.00, 0.00
216, 55058.11, 55063.16, 55149.42, 55120.92, 28008.23, 28018.76, 28045.45, 28039.35, 0.00, 0.00, 0.00
217, 55566.97, 55571.71, 55658.05, 55630.34, 27759.08, 27769.00, 27796.54, 27789.79, 0.00, 0.00, 0.00
218, 55849.32, 55853.90, 55940.40, 55913.00, 27664.55, 27674.45, 27702.06, 27694.88, 0.00, 0.00, 0.00
219, 55385.70, 55390.32, 55477.83, 55448.69, 27901.30, 27911.61, 27938.54, 27931.97, 0.00, 0.00, 0.00
220, 55118.35, 55122.95, 55210.55, 55181.11, 28035.37, 28045.87, 28072.72, 28066.62, 0.00, 0.00, 0.00
221, 55568.18, 55573.03, 55660.42, 55631.55, 27814.38, 27824.34, 27851.88, 27845.45, -0.06, 0.37, 0.92
222, 55951.22, 55955.98, 56043.89, 56014.81, 27653.73, 27663.55, 27690.88, 27684.56, 0.00, 0.00, 0.00
223, 55584.99, 55589.50, 55677.48, 55648.24, 27855.95, 27866.12, 27893.28, 27887.04, 0.00, 0.00, 0.00
224, 55187.57, 55192.18, 55280.06, 55250.58, 28034.18, 28044.62, 28071.64, 28065.39, 0.00, 0.00, 0.00
225, 55519.14, 55524.10, 55611.79, 55582.59, 27863.21, 27873.21, 27900.41, 27893.79, 0.00, 0.00, 0.00
226, 55999.34, 56003.93, 56091.61, 56063.05, 27655.50, 27665.74, 27692.78, 27685.96, 0.00, 0.00, 0.00
227, 55706.65, 55711.23, 55799.14, 55770.24, 27802.89, 27813.24, 27840.39, 27833.84, 0.00, 0.00, 0.00
228, 55203.09, 55207.91, 55295.91, 55266.00, 28015.81, 28026.09, 28053.34, 28046.88, 0.00, 0.00, 0.00
229, 55429.55, 55434.58, 55522.25, 55492.59, 27910.27, 27920.26, 27947.57, 27940.71, 0.00, 0.00, 0.00
230, 55987.95, 55992.59, 56080.95, 56051.42, 27670.25, 27680.06, 27707.45, 27700.54, 0.00, 0.00, 0.00
231, 55914.14, 55918.72, 56008.22, 55977.68, 27747.77, 27757.65, 27785.14, 27778.43, -0.07, 0.35, 0.91
232, 55437.93, 55442.41, 55533.38, 55501.14, 28012.95, 28023.34, 28050.28, 28044.15, 0.00, 0.00, 0.00
233, 55585.84, 55590.33, 55681.75, 55649.18, 27965.29, 27975.64, 28002.62, 27996.39, 0.00, 0.00, 0.00
234, 56201.16, 56205.79, 56297.43, 56264.99, 27701.14, 27711.60, 27738.65, 27731.83, 0.00, 0.00, 0.00
235, 56265.08, 56269.98, 56361.55, 56329.12, 27710.75, 27720.92, 27748.04, 27741.46, 0.00, 0.00, 0.00
236, 55765.90, 55771.00, 55862.57, 55829.52, 27969.25, 27979.53, 28006.38, 27999.92, 0.00, 0.00, 0.00
237, 55695.09, 55699.85, 55791.02, 55758.17, 27993.37, 28003.90, 28030.94, 28024.39, 0.00, 0.00, 0.00
238, 56245.08, 56249.82, 56341.13, 56308.85, 27733.66, 27743.61, 27770.95, 27764.42, 0.00, 0.00, 0.00
239, 56420.36, 56425.19, 56516.92, 56484.62, 27693.81, 27703.82, 27731.32, 27724.54, 0.00, 0.00, 0.00
240, 55938.43, 55943.00, 56035.29, 56002.03, 27957.65, 27967.73, 27994.87, 27988.50, 0.00, 0.00, 0.00
241, 55765.81, 55770.80, 55862.62, 55829.56, 28034.70, 28044.96, 28072.02, 28065.65, -0.07, 0.35, 0.91
242, 56265.98, 56270.52, 56362.92, 56330.08, 27784.02, 27793.99, 27821.26, 27814.73, 0.00, 0.00, 0.00
243, 56567.64, 56572.13, 56665.11, 56631.92, 27676.49, 27686.48, 27714.02, 27707.09, 0.00, 0.00, 0.00
244, 56174.63, 56179.66, 56272.66, 56238.80, 27921.15, 27931.90, 27958.57, 27952.22, 0.00, 0.00, 0.00
245, 55849.88, 55854.95, 55947.67, 55913.56, 28052.73, 28063.06, 28089.86, 28083.60, 0.00, 0.00, 0.00
246, 56279.01, 56283.99, 56376.95, 56343.11, 27850.43, 27860.62, 27887.67, 27881.14, 0.00, 0.00, 0.00
247, 56708.32, 56713.01, 56806.35, 56772.82, 27679.71, 27689.88, 27716.92, 27710.22, 0.00, 0.00, 0.00
248, 56375.32, 56380.35, 56473.49, 56439.56, 27857.25, 27867.73, 27894.44, 27888.27, 0.00, 0.00, 0.00
249, 55957.97, 55962.78, 56056.47, 56021.98, 28040.42, 28051.04, 28077.72, 28071.40, 0.00, 0.00, 0.00
250, 56287.86, 56292.55, 56386.25, 56352.21, 27890.26, 27900.36, 27927.65, 27920.84, 0.00, 0.00, 0.00
251, 56763.13, 56767.37, 56861.07, 56827.36, 27683.48, 27693.34, 27720.74, 27713.90, 0.00, 0.00, 0.00
252, 56525.41, 56530.04, 56623.96, 56589.43, 27819.96, 27830.02, 27857.22, 27850.45, -0.08, 0.35, 0.89
253, 56058.80, 56063.89, 56157.41, 56122.75, 28046.48, 28056.67, 28083.78, 28077.05, 0.00, 0.00, 0.00
254, 56226.37, 56231.42, 56324.61, 56290.48, 27951.75, 27961.83, 27989.14, 27982.39, 0.00, 0.00, 0.00
255, 56765.58, 56770.41, 56864.02, 56830.02, 27714.51, 27724.23, 27751.88, 27744.86, 0.00, 0.00, 0.00
0, 56704.50, 56709.21, 56803.40, 56768.96, 27779.17, 27789.23, 27816.72, 27809.91, 0.00, 0.00, 0.00
1, 56164.48, 56168.93, 56263.32, 56228.38, 28035.52, 28045.94, 28072.99, 28066.57, 0.00, 0.00, 0.00
2, 56176.13, 56180.97, 56274.63, 56239.96, 27991.92, 28002.31, 28029.18, 28022.89, 0.00, 0.00, 0.00
3, 56756.48, 56760.98, 56854.70, 56820.46, 27728.10, 27738.20, 27765.43, 27758.85, 0.00, 0.00, 0.00
4, 56797.50, 56802.29, 56895.98, 56862.07, 27723.40, 27733.39, 27760.51, 27754.00, 0.00, 0.00, 0.00
5, 56269.53, 56274.20, 56367.61, 56333.66, 27984.81, 27995.07, 28021.80, 28015.47, 0.00, 0.00, 0.00
6, 56112.13, 56117.18, 56210.48, 56176.04, 28017.13, 28027.21, 28054.08, 28047.66, -0.10, 0.34, 0.90
7, 56611.58, 56616.61, 56709.28, 56676.00, 27758.96, 27769.16, 27796.09, 27789.21, 0.00, 0.00, 0.00
8, 56776.29, 56781.30, 56874.35, 56841.07, 27693.32, 27703.56, 27730.38, 27723.61, 0.00, 0.00, 0.00
9, 56292.26, 56297.18, 56390.97, 56356.64, 27944.42, 27955.13, 27981.68, 27975.35, 0.00, 0.00, 0.00
10, 56076.19, 56081.22, 56174.74, 56140.14, 28041.89, 28052.47, 28079.04, 28072.99, 0.00, 0.00, 0.00
11, 56558.11, 56563.28, 56656.46, 56622.20, 27809.79, 27819.85, 27846.94, 27840.50, 0.00, 0.00, 0.00
12, 56818.67, 56823.56, 56916.73, 56883.09, 27682.63, 27692.78, 27719.98, 27713.55, 0.00, 0.00, 0.00
13, 56375.55, 56380.73, 56473.87, 56439.92, 27898.15, 27908.61, 27935.52, 27929.15, 0.00, 0.00, 0.00
14, 56042.77, 56047.64, 56141.25, 56106.63, 28042.56, 28053.23, 28080.25, 28073.75, 0.00, 0.00, 0.00
15, 56432.65, 56437.30, 56530.87, 56496.82, 27836.39, 27846.90, 27874.21, 27867.55, 0.00, 0.00, 0.00
16, 56832.86, 56837.33, 56930.94, 56897.41, 27669.09, 27678.86, 27706.17, 27699.31, -0.11, 0.34, 0.91
17, 56488.80, 56493.16, 56586.75, 56553.02, 27858.74, 27868.80, 27895.45, 27889.08, 0.00, 0.00, 0.00
18, 56072.05, 56077.24, 56170.63, 56136.36, 28046.77, 28057.00, 28083.92, 28077.34, 0.00, 0.00, 0.00
19, 56346.82, 56351.41, 56445.06, 56410.82, 27899.18, 27909.28, 27936.37, 27929.80, 0.00, 0.00, 0.00
20, 56810.13, 56814.85, 56908.07, 56874.41, 27690.50, 27700.72, 27727.63, 27721.30, 0.00, 0.00, 0.00
21, 56603.76, 56608.61, 56701.79, 56667.91, 27816.05, 27826.36, 27853.13, 27846.76, 0.00, 0.00, 0.00
22, 56111.04, 56115.93, 56209.67, 56175.00, 28041.56, 28052.06, 28078.75, 28072.74, 0.00, 0.00, 0.00
23, 56275.86, 56280.37, 56374.11, 56340.01, 27959.21, 27969.54, 27996.47, 27990.15, 0.00, 0.00, 0.00
24, 56815.00, 56819.63, 56912.99, 56879.40, 27699.53, 27709.63, 27737.04, 27730.29, 0.00, 0.00, 0.00
25, 56736.62, 56741.49, 56835.39, 56801.28, 27766.48, 27776.36, 27803.69, 27797.05, 0.00, 0.00, 0.00
26, 56249.28, 56253.89, 56348.48, 56313.21, 28028.17, 28038.25, 28065.10, 28058.88, -0.09, 0.35, 0.91
27, 56252.28, 56257.19, 56351.14, 56316.36, 27996.95, 28007.29, 28034.07, 28027.75, 0.00, 0.00, 0.00
28, 56787.20, 56792.16, 56885.84, 56852.13, 27736.26, 27745.85, 27773.14, 27766.77, 0.00, 0.00, 0.00
29, 56842.12, 56846.70, 56940.93, 56907.00, 27730.94, 27740.39, 27768.02, 27761.47, 0.00, 0.00, 0.00
30, 56325.54, 56330.44, 56424.70, 56390.01, 27981.21, 27991.65, 28018.42, 28012.08, 0.00, 0.00, 0.00
31, 56191.12, 56196.22, 56290.50, 56255.34, 28021.55, 28032.48, 28059.11, 28052.73, 0.00, 0.00, 0.00
32, 56717.77, 56722.82, 56816.70, 56782.17, 27767.88, 27778.32, 27805.21, 27798.64, 0.00, 0.00, 0.00
33, 56937.80, 56942.52, 57036.57, 57002.49, 27680.51, 27690.46, 27717.82, 27710.96, 0.00, 0.00, 0.00
34, 56468.24, 56473.04, 56567.52, 56532.66, 27911.05, 27921.11, 27948.26, 27941.94, 0.00, 0.00, 0.00
35, 56243.54, 56248.34, 56342.40, 56307.62, 28007.65, 28017.98, 28044.78, 28038.72, 0.00, 0.00, 0.00
36, 56701.55, 56706.57, 56800.00, 56765.70, 27788.18, 27798.26, 27825.42, 27818.91, -0.07, 0.35, 0.90
37, 57019.97, 57024.75, 57118.54, 57084.36, 27662.23, 27672.31, 27699.64, 27692.78, 0.00, 0.00, 0.00
38, 56675.71, 56680.87, 56774.61, 56740.13, 27835.14, 27845.76, 27873.05, 27866.05, 0.00, 0.00, 0.00
39, 56353.24, 56358.34, 56451.74, 56417.34, 27966.23, 27976.87, 28003.94, 27997.35, 0.00, 0.00, 0.00
40, 56709.35, 56713.88, 56806.91, 56773.56, 27783.22, 27793.63, 27820.86, 27814.02, 0.00, 0.00, 0.00
41, 57048.07, 57052.49, 57144.36, 57112.68, 27608.34, 27618.40, 27646.13, 27639.18, 0.00, 0.00, 0.00
42, 56686.97, 56691.58, 56782.46, 56751.28, 27776.54, 27786.55, 27814.20, 27807.11, 0.00, 0.00, 0.00
43, 56138.44, 56143.47, 56232.96, 56202.41, 27966.90, 27977.19, 28004.03, 27997.75, 0.00, 0.00, 0.00
44, 56263.36, 56268.26, 56356.10, 56327.22, 27830.22, 27840.01, 27867.17, 27860.76, 0.00, 0.00, 0.00
45, 56566.41, 56570.77, 56657.09, 56629.98, 27597.65, 27607.29, 27634.85, 27627.92, 0.00, 0.00, 0.00
46, 56201.09, 56206.10, 56289.76, 56265.04, 27721.10, 27731.03, 27758.32, 27751.84, 0.00, 0.00, 0.00
47, 55481.74, 55487.13, 55569.14, 55545.29, 27953.40, 27963.98, 27990.64, 27984.45, -0.04, 0.35, 0.90
48, 55418.20, 55423.12, 55505.06, 55481.12, 27872.18, 27882.21, 27909.01, 27902.44, 0.00, 0.00, 0.00
49, 55800.23, 55804.61, 55886.49, 55863.58, 27634.15, 27643.77, 27671.08, 27664.22, 0.00, 0.00, 0.00
50, 55638.07, 55642.63, 55724.21, 55701.44, 27698.06, 27708.16, 27735.16, 27728.48, 0.00, 0.00, 0.00
51, 55019.42, 55023.64, 55105.34, 55081.94, 27937.69, 27947.97, 27975.11, 27968.69, 0.00, 0.00, 0.00
52, 54934.84, 54939.11, 55020.52, 54997.16, 27924.28, 27934.72, 27961.49, 27955.42, 0.00, 0.00, 0.00
53, 55410.06, 55414.75, 55495.89, 55473.18, 27679.88, 27689.81, 27717.17, 27710.37, 0.00, 0.00, 0.00
54, 55467.71, 55472.54, 55553.65, 55530.74, 27668.82, 27678.88, 27706.13, 27699.29, 0.00, 0.00, 0.00
55, 54916.87, 54921.48, 55002.86, 54979.21, 27916.61, 27926.85, 27953.72, 27947.41, 0.00, 0.00, 0.00
56, 54771.14, 54775.70, 54856.88, 54833.10, 27950.79, 27960.67, 27987.83, 27981.61, 0.00, 0.00, 0.00
57, 55249.89, 55254.67, 55335.52, 55312.81, 27685.18, 27694.88, 27722.26, 27715.47, -0.04, 0.35, 0.89
58, 55385.43, 55390.23, 55470.95, 55448.60, 27613.88, 27623.58, 27651.21, 27644.17, 0.00, 0.00, 0.00
59, 54882.20, 54886.94, 54968.05, 54944.77, 27866.77, 27877.25, 27904.39, 27897.72, 0.00, 0.00, 0.00
60, 54620.49, 54624.91, 54706.30, 54682.63, 27968.74, 27979.42, 28006.27, 28000.07, 0.00, 0.00, 0.00
61, 55017.36, 55022.15, 55102.93, 55079.91, 27761.49, 27771.68, 27799.18, 27792.63, 0.00, 0.00, 0.00
62, 55245.57, 55250.16, 55330.94, 55308.59, 27662.72, 27672.49, 27699.98, 27693.50, 0.00, 0.00, 0.00
63, 54760.43, 54764.97, 54846.15, 54823.11, 27882.59, 27892.79, 27919.59, 27913.42, 0.00, 0.00, 0.00
64, 54367.11, 54372.27, 54453.50, 54429.89, 28066.37, 28076.61, 28103.38, 28097.33, 0.00, 0.00, 0.00
65, 54729.09, 54734.01, 54814.84, 54791.77, 27874.10, 27883.93, 27911.36, 27904.88, 0.00, 0.00, 0.00
66, 55104.98, 55109.86, 55190.28, 55167.48, 27687.28, 27697.45, 27724.57, 27718.06, 0.00, 0.00, 0.00
67, 54717.20, 54721.67, 54802.41, 54779.32, 27861.18, 27871.44, 27898.31, 27892.09, -0.01, 0.36, 0.89
68, 54272.40, 54277.32, 54358.03, 54334.47, 28072.63, 28083.18, 28110.18, 28103.99, 0.00, 0.00, 0.00
69, 54500.43, 54504.97, 54585.44, 54562.59, 27954.43, 27964.60, 27991.85, 27985.30, 0.00, 0.00, 0.00
70, 55005.85, 55010.34, 55091.06, 55068.55, 27741.55, 27751.43, 27778.63, 27772.11, 0.00, 0.00, 0.00
71, 54785.53, 54790.41, 54871.23, 54847.96, 27832.55, 27842.70, 27869.79, 27863.21, 0.00, 0.00, 0.00
72, 54264.02, 54269.14, 54350.01, 54326.05, 28072.47, 28082.80, 28109.46, 28103.36, 0.00, 0.00, 0.00
73, 54362.88, 54368.09, 54448.42, 54425.09, 28015.16, 28025.67, 28052.22, 28046.25, 0.00, 0.00, 0.00
74, 54845.21, 54849.93, 54930.33, 54907.75, 27769.67, 27779.73, 27806.89, 27800.18, 0.00, 0.00, 0.00
75, 54770.15, 54774.40, 54855.85, 54832.61, 27818.18, 27828.12, 27855.48, 27848.82, 0.00, 0.00, 0.00
76, 54220.01, 54224.53, 54305.84, 54282.11, 28095.45, 28105.89, 28132.91, 28126.72, 0.00, 0.00, 0.00
77, 54143.19, 54147.90, 54228.75, 54205.14, 28089.64, 28100.03, 28127.08, 28120.66, -0.05, 0.36, 0.95
78, 54638.05, 54642.73, 54723.10, 54700.17, 27837.06, 27847.39, 27874.37, 27867.84, 0.00, 0.00, 0.00
79, 54750.35, 54755.13, 54835.98, 54812.64, 27803.98, 27814.40, 27841.13, 27834.71, 0.00, 0.00, 0.00
80, 54233.22, 54238.03, 54318.83, 54295.20, 28050.75, 28061.36, 28088.12, 28082.08, 0.00, 0.00, 0.00
81, 54093.48, 54098.11, 54178.44, 54155.13, 28119.12, 28129.54, 28156.60, 28150.41, 0.00, 0.00, 0.00
82, 54539.02, 54543.80, 54623.77, 54601.06, 27881.77, 27891.96, 27919.32, 27912.70, 0.00, 0.00, 0.00
83, 54730.99, 54735.62, 54816.06, 54793.27, 27813.84, 27824.12, 27851.23, 27844.82, 0.00, 0.00, 0.00
84, 54249.34, 54253.56, 54334.36, 54310.78, 28045.16, 28055.30, 28082.17, 28076.12, 0.00, 0.00, 0.00
85, 53948.82, 53953.38, 54034.34, 54010.30, 28157.54, 28168.18, 28194.73, 28188.83, 0.00, 0.00, 0.00
86, 54364.49, 54369.16, 54449.63, 54426.25, 27946.25, 27956.73, 27983.89, 27977.32, 0.00, 0.00, 0.00
87, 54683.56, 54688.19, 54768.75, 54745.93, 27797.21, 27807.31, 27834.87, 27827.79, 0.00, 0.00, 0.00
88, 54315.77, 54320.10, 54400.93, 54377.84, 27990.71, 28001.01, 28028.30, 28021.73, -0.23, 0.35, 0.98
89, 53928.48, 53932.88, 54013.75, 53990.14, 28165.05, 28175.40, 28202.45, 28196.37, 0.00, 0.00, 0.00
90, 54052.62, 54057.25, 54137.33, 54114.27, 28083.09, 28093.17, 28120.42, 28114.22, 0.00, 0.00, 0.00
91, 53924.32, 53928.92, 54009.30, 53985.68, 28155.57, 28166.06, 28192.99, 28186.93, 0.00, 0.00, 0.00
92, 53394.20, 53398.83, 53479.39, 53455.56, 28403.19, 28413.74, 28440.43, 28434.84, 0.00, 0.00, 0.00
93, 52961.99, 52966.82, 53047.30, 53023.05, 28573.96, 28584.86, 28611.60, 28605.70, 0.00, 0.00, 0.00
94, 53248.98, 53253.90, 53333.70, 53310.27, 28402.79, 28413.40, 28440.22, 28434.21, 0.00, 0.00, 0.00
95, 53763.23, 53767.66, 53847.70, 53824.83, 28163.71, 28173.77, 28200.81, 28194.56, 0.00, 0.00, 0.00
96, 53622.14, 53626.73, 53706.95, 53683.50, 28245.03, 28255.22, 28282.62, 28276.10, 0.00, 0.00, 0.00
97, 53184.48, 53189.48, 53269.70, 53245.74, 28449.88, 28460.83, 28487.70, 28481.66, 0.00, 0.00, 0.00
98, 53333.99, 53339.20, 53419.08, 53395.28, 28356.03, 28366.66, 28393.04, 28387.25, -0.17, 0.37, 0.94
99, 53943.99, 53948.73, 54028.61, 54005.21, 28058.84, 28069.10, 28096.21, 28089.84, 0.00, 0.00, 0.00
100, 54018.53, 54022.69, 54102.64, 54079.39, 28049.85, 28060.29, 28087.20, 28080.72, 0.00, 0.00, 0.00
101, 53545.03, 53549.55, 53629.72, 53606.03, 28283.63, 28294.20, 28320.89, 28314.88, 0.00, 0.00, 0.00
102, 53555.14, 53559.38, 53639.67, 53616.00, 28256.49, 28266.73, 28293.96, 28288.10, 0.00, 0.00, 0.00
103, 54170.03, 54174.32, 54254.03, 54231.43, 27948.91, 27958.99, 27986.73, 27980.25, 0.00, 0.00, 0.00
104, 54367.06, 54371.58, 54451.39, 54428.98, 27874.59, 27884.72, 27911.99, 27905.19, 0.00, 0.00, 0.00
105, 53992.85, 53997.19, 54077.56, 54054.25, 28076.32, 28086.60, 28113.51, 28107.09, 0.00, 0.00, 0.00
106, 53884.04, 53888.36, 53968.71, 53945.29, 28095.22, 28105.78, 28132.71, 28126.45, 0.00, 0.00, 0.00
107, 54108.79, 54111.29, 54194.53, 54171.48, 27798.73, 27808.68, 27836.10, 27829.75, 0.00, 0.00, 0.00
108, 53360.86, 53358.80, 53450.30, 53426.66, 27594.10, 27603.82, 27631.47, 27624.65, -0.13, 0.38, 0.92
109, 52142.19, 52137.79, 52232.79, 52207.66, 27820.66, 27830.69, 27857.85, 27851.26, 0.00, 0.00, 0.00
110, 51871.65, 51868.88, 51960.67, 51935.91, 28003.20, 28013.60, 28040.40, 28034.25, 0.00, 0.00, 0.00
111, 52527.11, 52525.70, 52614.42, 52590.50, 27824.72, 27834.65, 27861.89, 27855.19, 0.00, 0.00, 0.00
112, 53445.46, 53447.29, 53530.46, 53507.62, 27742.04, 27752.24, 27779.46, 27772.91, 0.00, 0.00, 0.00
113, 53626.26, 53629.79, 53710.68, 53687.97, 27937.80, 27948.08, 27974.97, 27968.58, 0.00, 0.00, 0.00
114, 53357.73, 53361.75, 53442.59, 53419.10, 28113.17, 28123.61, 28150.17, 28143.71, 0.00, 0.00, 0.00
115, 53870.18, 53874.54, 53954.36, 53931.32, 27963.30, 27973.39, 28000.32, 27993.84, 0.00, 0.00, 0.00
116, 54383.38, 54387.78, 54467.33, 54445.34, 27754.58, 27764.87, 27791.91, 27785.36, 0.00, 0.00, 0.00
117, 54197.91, 54202.15, 54282.39, 54259.93, 27878.10, 27888.27, 27915.38, 27909.26, 0.00, 0.00, 0.00
118, 53776.53, 53781.11, 53861.40, 53838.27, 28073.63, 28083.98, 28111.18, 28104.88, -0.02, 0.41, 0.89
119, 53975.91, 53980.36, 54060.24, 54037.44, 27966.90, 27977.10, 28004.34, 27997.86, 0.00, 0.00, 0.00
120, 54546.48, 54550.95, 54630.75, 54608.19, 27726.00, 27736.30, 27763.53, 27756.87, 0.00, 0.00, 0.00
121, 54491.74, 54496.19, 54575.87, 54553.54, 27767.26, 27777.58, 27804.43, 27798.04, 0.00, 0.00, 0.00
122, 53991.73, 53996.16, 54076.16, 54053.31, 28014.49, 28025.31, 28051.80, 28045.80, 0.00, 0.00, 0.00
123, 54091.62, 54096.20, 54176.02, 54153.20, 27964.89, 27975.35, 28002.15, 27996.07, 0.00, 0.00, 0.00
124, 54665.04, 54669.71, 54749.59, 54727.02, 27712.21, 27722.29, 27749.55, 27743.05, 0.00, 0.00, 0.00
125, 54672.90, 54677.48, 54757.52, 54734.91, 27721.79, 27732.17, 27759.35, 27752.73, 0.00, 0.00, 0.00
126, 54156.29, 54161.43, 54241.47, 54218.47, 27982.68, 27993.08, 28020.10, 28013.44, 0.00, 0.00, 0.00
127, 54075.30, 54079.98, 54160.24, 54136.84, 28001.35, 28011.56, 28038.61, 28032.30, 0.00, 0.00, 0.00
128, 54608.53, 54612.98, 54693.11, 54670.42, 27745.42, 27755.63, 27782.97, 27776.31, -0.02, 0.41, 0.91
129, 54768.25, 54772.64, 54852.92, 54830.28, 27693.70, 27703.47, 27730.98, 27724.16, 0.00, 0.00, 0.00
130, 54262.34, 54266.75, 54347.28, 54323.88, 27937.87, 27948.08, 27975.02, 27968.56, 0.00, 0.00, 0.00
131, 54070.37, 54074.93, 54155.08, 54132.08, 28020.01, 28030.41, 28057.52, 28051.19, 0.00, 0.00, 0.00
132, 54557.01, 54561.28, 54641.61, 54619.14, 27788.00, 27798.21, 27825.35, 27818.76, 0.00, 0.00, 0.00
133, 54820.63, 54824.98, 54905.23, 54882.85, 27686.12, 27696.45, 27723.45, 27716.83, 0.00, 0.00, 0.00
134, 54387.80, 54392.32, 54473.05, 54449.85, 27902.31, 27912.77, 27939.70, 27933.51, 0.00, 0.00, 0.00
135, 54085.54, 54090.13, 54170.66, 54147.34, 28029.82, 28039.97, 28067.20, 28061.14, 0.00, 0.00, 0.00
136, 54480.32, 54484.92, 54565.12, 54542.14, 27825.64, 27835.61, 27863.21, 27856.62, 0.00, 0.00, 0.00
137, 54841.21, 54845.59, 54925.97, 54903.23, 27658.23, 27668.20, 27695.69, 27688.87, 0.00, 0.00, 0.00
138, 54498.87, 54503.48, 54583.81, 54560.96, 27838.72, 27848.89, 27875.78, 27869.34, 0.00, 0.00, 0.00
139, 54086.05, 54090.68, 54170.59, 54147.34, 28019.90, 28030.00, 28057.29, 28050.72, 0.02, 0.44, 0.91
140, 54382.44, 54387.43, 54467.18, 54444.18, 27870.95, 27881.34, 27908.52, 27901.64, 0.00, 0.00, 0.00
141, 54844.43, 54849.26, 54929.25, 54906.88, 27664.33, 27674.43, 27701.88, 27695.24, 0.00, 0.00, 0.00
142, 54626.45, 54631.02, 54711.46, 54688.66, 27796.72, 27806.42, 27833.91, 27827.45, 0.00, 0.00, 0.00
143, 54150.38, 54155.35, 54235.75, 54212.39, 28020.91, 28031.57, 28058.52, 28052.18, 0.00, 0.00, 0.00
144, 54300.05, 54304.93, 54384.95, 54362.19, 27909.10, 27919.25, 27946.52, 27939.75, 0.00, 0.00, 0.00
145, 54812.31, 54817.07, 54897.18, 54874.96, 27684.80, 27694.75, 27722.11, 27715.13, 0.00, 0.00, 0.00
146, 54724.00, 54728.42, 54809.02, 54786.16, 27747.43, 27757.54, 27784.80, 27777.88, 0.00, 0.00, 0.00
147, 54215.70, 54220.50, 54300.84, 54277.59, 27982.71, 27992.97, 28020.50, 28013.60, 0.00, 0.00, 0.00
148, 54256.82, 54261.72, 54341.71, 54318.69, 27949.71, 27959.75, 27987.31, 27980.61, 0.00, 0.00, 0.00
149, 54768.46, 54773.21, 54853.26, 54830.55, 27696.27, 27706.01, 27733.60, 27727.05, 0.03, 0.43, 0.92
150, 54805.27, 54809.67, 54890.32, 54867.70, 27706.46, 27716.38, 27743.61, 27737.22, 0.00, 0.00, 0.00
151, 54292.43, 54296.70, 54377.64, 54354.41, 27951.44, 27961.45, 27988.61, 27982.24, 0.00, 0.00, 0.00
152, 54157.11, 54161.54, 54241.85, 54218.94, 27993.30, 28003.29, 28030.41, 28023.97, 0.00, 0.00, 0.00
153, 54688.46, 54692.73, 54772.86, 54750.55, 27732.41, 27742.09, 27769.25, 27763.01, 0.00, 0.00, 0.00
154, 54863.72, 54868.23, 54948.61, 54926.30, 27672.58, 27682.34, 27709.66, 27703.02, 0.00, 0.00, 0.00
155, 54392.63, 54397.19, 54478.00, 54454.79, 27913.06, 27923.16, 27950.27, 27944.06, 0.00, 0.00, 0.00
156, 54156.44, 54161.25, 54241.65, 54218.25, 27993.68, 28004.34, 28030.90, 28024.82, 0.00, 0.00, 0.00
157, 54597.17, 54602.09, 54682.45, 54659.58, 27776.98, 27786.86, 27813.82, 27807.33, 0.00, 0.00, 0.00
158, 54883.03, 54887.70, 54968.04, 54945.64, 27669.25, 27678.97, 27706.04, 27699.42, 0.00, 0.00, 0.00
159, 54487.25, 54491.38, 54572.34, 54549.05, 27880.38, 27890.55, 27917.48, 27911.11, 0.06, 0.42, 0.93
160, 54243.28, 54244.80, 54325.96, 54302.51, 28025.89, 28036.26, 28062.79, 28056.74, 0.00, 0.00, 0.00
161, 54770.58, 54765.21, 54847.45, 54824.49, 27818.38, 27828.55, 27855.75, 27849.49, 0.00, 0.00, 0.00
162, 54517.00, 54501.51, 54594.52, 54570.57, 27521.28, 27531.47, 27558.83, 27551.94, 0.00, 0.00, 0.00
163, 53324.42, 53303.32, 53403.64, 53378.00, 27634.58, 27644.64, 27671.77, 27665.22, 0.00, 0.00, 0.00
164, 52731.09, 52709.26, 52810.22, 52784.11, 27849.60, 27859.73, 27886.93, 27880.51, 0.00, 0.00, 0.00
165, 53009.33, 52986.13, 53087.31, 53061.43, 27707.76, 27717.93, 27745.20, 27738.54, 0.00, 0.00, 0.00
166, 53655.34, 53631.36, 53731.80, 53706.57, 27518.71, 27528.65, 27556.30, 27549.13, 0.00, 0.00, 0.00
167, 53640.74, 53615.75, 53716.14, 53690.43, 27642.02, 27651.77, 27678.81, 27672.24, 0.00, 0.00, 0.00
168, 53268.90, 53242.05, 53343.51, 53316.69, 27844.64, 27855.08, 27881.88, 27875.78, 0.00, 0.00, 0.00
169, 53453.28, 53424.33, 53526.82, 53500.24, 27751.50, 27761.78, 27788.89, 27782.50, 0.03, 0.39, 0.92
170, 54018.93, 53989.23, 54091.80, 54065.83, 27524.45, 27533.73, 27561.40, 27554.36, 0.00, 0.00, 0.00
171, 54077.68, 54047.23, 54150.03, 54124.01, 27577.87, 27587.51, 27615.09, 27608.29, 0.00, 0.00, 0.00
172, 53771.86, 53740.86, 53843.59, 53817.07, 27816.95, 27827.21, 27854.32, 27847.95, 0.00, 0.00, 0.00
173, 53970.70, 53938.91, 54041.13, 54014.55, 27795.60, 27805.61, 27832.55, 27826.13, 0.00, 0.00, 0.00
174, 54644.40, 54611.37, 54714.23, 54687.95, 27547.56, 27557.22, 27584.51, 27577.74, 0.00, 0.00, 0.00
175, 54762.24, 54727.71, 54831.69, 54805.43, 27523.24, 27533.08, 27560.33, 27553.51, 0.00, 0.00, 0.00
176, 54349.74, 54313.66, 54418.45, 54391.54, 27755.59, 27765.85, 27792.72, 27786.35, 0.00, 0.00, 0.00
177, 54376.88, 54340.48, 54445.07, 54418.07, 27779.84, 27789.72, 27817.10, 27810.44, 0.00, 0.00, 0.00
178, 55102.86, 55066.89, 55170.29, 55144.03, 27540.50, 27550.11, 27577.54, 27570.90, 0.00, 0.00, 0.00
179, 55461.11, 55425.21, 55528.48, 55502.31, 27473.89, 27483.88, 27511.06, 27504.29, 0.00, 0.00, 0.00
180, 55094.90, 55058.27, 55162.38, 55135.38, 27686.30, 27696.11, 27723.58, 27716.63, 0.03, 0.38, 0.90
181, 54837.52, 54798.47, 54904.24, 54877.02, 27761.40, 27771.37, 27798.77, 27792.29, 0.00, 0.00, 0.00
182, 55189.43, 55149.95, 55256.28, 55229.44, 27560.62, 27570.38, 27597.88, 27591.19, 0.00, 0.00, 0.00
183, 55527.83, 55489.41, 55595.36, 55568.69, 27423.15, 27433.03, 27460.30, 27453.46, 0.00, 0.00, 0.00
184, 55156.23, 55118.93, 55225.55, 55197.99, 27608.72, 27618.66, 27645.89, 27639.36, 0.00, 0.00, 0.00
185, 54913.65, 54876.32, 54981.51, 54954.13, 27761.13, 27771.10, 27798.26, 27791.62, 0.00, 0.00, 0.00
186, 55512.86, 55476.11, 55579.36, 55552.78, 27608.49, 27618.40, 27645.69, 27638.56, 0.00, 0.00, 0.00
187, 55779.25, 55743.08, 55847.08, 55821.04, 27436.70, 27446.58, 27474.07, 27467.07, 0.00, 0.00, 0.00
188, 55472.85, 55437.82, 55542.05, 55515.52, 27608.07, 27617.90, 27645.33, 27638.47, 0.00, 0.00, 0.00
189, 55518.89, 55486.71, 55586.80, 55560.15, 27835.81, 27845.98, 27873.05, 27866.39, 0.00, 0.00, 0.00
190, 56573.34, 56545.15, 56638.80, 56613.12, 27758.76, 27769.11, 27795.96, 27789.43, 0.03, 0.37, 0.90
191, 57579.39, 57554.13, 57643.94, 57619.31, 27576.78, 27586.88, 27613.99, 27607.53, 0.00, 0.00, 0.00
192, 58221.60, 58197.32, 58283.58, 58259.21, 27716.59, 27726.64, 27753.69, 27747.48, 0.00, 0.00, 0.00
193, 58196.41, 58172.45, 58258.12, 58233.58, 27898.24, 27908.32, 27935.52, 27929.08, 0.00, 0.00, 0.00
194, 58506.25, 58482.58, 58568.54, 58544.02, 27810.91, 27820.72, 27847.99, 27841.40, 0.00, 0.00, 0.00
195, 59109.70, 59085.47, 59171.52, 59147.39, 27590.17, 27599.84, 27627.22, 27620.23, 0.00, 0.00, 0.00
196, 59264.29, 59236.14, 59322.71, 59298.19, 27618.26, 27628.34, 27655.54, 27648.75, 0.00, 0.00, 0.00
197, 59188.40, 59158.41, 59245.31, 59220.36, 27855.68, 27865.99, 27893.05, 27886.66, 0.00, 0.00, 0.00
198, 59433.60, 59404.30, 59491.16, 59466.43, 27835.10, 27845.31, 27872.67, 27865.94, 0.00, 0.00, 0.00
199, 60008.13, 59980.08, 60067.36, 60042.73, 27597.47, 27607.46, 27634.56, 27628.05, 0.00, 0.00, 0.00
200, 60204.18, 60174.76, 60262.56, 60237.93, 27596.78, 27606.55, 27633.53, 27627.40, 0.02, 0.36, 0.90
201, 60016.62, 59983.03, 60071.23, 60045.77, 27815.16, 27825.15, 27852.35, 27845.69, 0.00, 0.00, 0.00
202, 60165.93, 60132.36, 60220.98, 60195.21, 27867.21, 27877.61, 27904.34, 27897.90, 0.00, 0.00, 0.00
203, 60785.10, 60752.62, 60841.60, 60816.61, 27660.04, 27669.92, 27696.89, 27690.70, 0.00, 0.00, 0.00
204, 60974.19, 60943.86, 61032.62, 61007.70, 27576.84, 27586.72, 27614.10, 27607.51, 0.00, 0.00, 0.00
205, 60519.43, 60489.25, 60577.90, 60552.64, 27773.14, 27783.40, 27810.44, 27803.87, 0.00, 0.00, 0.00
206, 60376.93, 60345.44, 60434.44, 60408.54, 27870.90, 27881.36, 27907.98, 27901.59, 0.00, 0.00, 0.00
207, 60910.54, 60878.17, 60967.04, 60941.76, 27701.12, 27711.56, 27738.65, 27731.99, 0.00, 0.00, 0.00
208, 61386.58, 61352.30, 61441.46, 61416.49, 27585.61, 27595.60, 27623.07, 27616.00, 0.00, 0.00, 0.00
209, 61235.02, 61199.12, 61289.00, 61263.54, 27764.08, 27774.21, 27801.57, 27794.71, 0.00, 0.00, 0.00
210, 61112.15, 61075.04, 61164.96, 61139.08, 27902.78, 27913.21, 27940.24, 27933.53, 0.03, 0.36, 0.90
211, 61593.07, 61555.27, 61645.24, 61619.40, 27738.16, 27748.35, 27775.55, 27768.82, 0.00, 0.00, 0.00
212, 62070.64, 62032.77, 62123.00, 62097.50, 27606.64, 27616.65, 27643.92, 27637.01, 0.00, 0.00, 0.00
213, 62017.62, 61979.26, 62069.96, 62043.93, 27744.53, 27754.52, 27781.99, 27775.42, 0.00, 0.00, 0.00
214, 61794.99, 61756.32, 61846.94, 61820.48, 27912.48, 27922.51, 27949.65, 27943.50, 0.00, 0.00, 0.00
215, 62092.23, 62052.96, 62143.50, 62117.42, 27791.89, 27802.08, 27829.35, 27822.94, 0.00, 0.00, 0.00
216, 62669.73, 62629.59, 62720.73, 62695.16, 27612.96, 27623.04, 27650.54, 27643.77, 0.00, 0.00, 0.00
217, 62604.69, 62564.30, 62655.92, 62630.14, 27705.99, 27716.03, 27743.28, 27736.79, 0.00, 0.00, 0.00
218, 62258.48, 62218.47, 62310.36, 62283.87, 27906.85, 27917.26, 27944.17, 27937.80, 0.00, 0.00, 0.00
219, 62436.27, 62396.57, 62488.43, 62462.13, 27839.86, 27850.29, 27877.18, 27870.63, 0.00, 0.00, 0.00
220, 62920.96, 62881.60, 62973.38, 62947.43, 27621.75, 27631.70, 27659.21, 27652.33, 0.03, 0.37, 0.90
221, 62864.12, 62826.35, 62918.30, 62892.13, 27650.38, 27660.15, 27687.64, 27680.80, 0.00, 0.00, 0.00
222, 62371.42, 62334.23, 62426.05, 62399.79, 27863.66, 27874.08, 27900.81, 27894.62, 0.00, 0.00, 0.00
223, 62335.68, 62298.36, 62390.29, 62363.85, 27864.40, 27874.52, 27901.57, 27895.04, 0.00, 0.00, 0.00
224, 62720.02, 62685.42, 62776.84, 62751.09, 27655.41, 27665.67, 27693.03, 27686.10, 0.00, 0.00, 0.00
225, 62622.95, 62591.01, 62681.66, 62656.32, 27617.28, 27627.49, 27654.56, 27648.12, 0.00, 0.00, 0.00
226, 62071.22, 62037.89, 62128.71, 62102.84, 27830.29, 27840.30, 27867.21, 27861.02, 0.00, 0.00, 0.00
227, 61967.68, 61933.02, 62024.17, 61997.90, 27877.43, 27887.62, 27914.62, 27908.46, 0.00, 0.00, 0.00
228, 62348.80, 62315.50, 62406.58, 62380.52, 27678.57, 27688.67, 27715.85, 27709.32, 0.00, 0.00, 0.00
229, 62501.82, 62467.02, 62558.26, 62532.38, 27599.06, 27609.19, 27636.32, 27629.73, 0.00, 0.00, 0.00
230, 62109.66, 62075.96, 62167.20, 62140.89, 27795.98, 27806.08, 27832.88, 27826.54, 0.00, 0.00, 0.00
231, 61851.72, 61818.20, 61909.48, 61882.79, 27900.41, 27910.53, 27937.47, 27931.10, 0.02, 0.38, 0.91
232, 62182.77, 62149.07, 62239.97, 62213.98, 27727.88, 27738.07, 27764.96, 27758.38, 0.00, 0.00, 0.00
233, 62396.77, 62364.07, 62454.80, 62429.09, 27607.82, 27617.63, 27644.66, 27638.02, 0.00, 0.00, 0.00
234, 61836.39, 61800.98, 61894.57, 61868.24, 27734.29, 27744.57, 27771.57, 27765.07, 0.00, 0.00, 0.00
235, 60725.24, 60685.50, 60785.97, 60758.59, 27801.46, 27811.80, 27838.61, 27832.57, 0.00, 0.00, 0.00
236, 60031.40, 59988.46, 60095.01, 60066.98, 27605.70, 27615.65, 27642.49, 27636.17, 0.00, 0.00, 0.00
237, 59853.01, 59809.06, 59916.02, 59888.17, 27462.54, 27472.10, 27499.30, 27492.49, 0.00, 0.00, 0.00
238, 59487.69, 59444.08, 59551.13, 59522.87, 27589.74, 27599.91, 27626.69, 27620.12, 0.00, 0.00, 0.00
239, 58754.20, 58712.11, 58819.69, 58791.21, 27747.03, 27757.20, 27784.47, 27777.72, 0.00, 0.00, 0.00
240, 58623.33, 58581.66, 58688.97, 58660.99, 27660.93, 27670.77, 27697.90, 27691.58, 0.00, 0.00, 0.00
241, 58850.26, 58807.41, 58914.95, 58887.10, 27474.18, 27483.97, 27511.26, 27504.51, 0.02, 0.38, 0.90
242, 58359.57, 58314.31, 58424.71, 58396.12, 27526.71, 27536.39, 27563.79, 27556.91, 0.00, 0.00, 0.00
243, 57468.81, 57423.71, 57535.94, 57506.68, 27700.81, 27710.69, 27738.04, 27731.23, 0.00, 0.00, 0.00
244, 57330.50, 57285.98, 57397.36, 57368.45, 27663.66, 27673.60, 27700.98, 27694.12, 0.00, 0.00, 0.00
245, 57620.14, 57574.98, 57686.07, 57657.64, 27452.10, 27461.75, 27489.16, 27482.05, 0.00, 0.00, 0.00
246, 57522.59, 57475.83, 57587.05, 57558.71, 27473.51, 27483.30, 27510.28, 27503.44, 0.00, 0.00, 0.00
247, 57134.30, 57089.68, 57199.81, 57170.98, 27717.30, 27727.56, 27754.36, 27747.92, 0.00, 0.00, 0.00
248, 57091.70, 57045.61, 57155.22, 57126.50, 27716.90, 27726.78, 27754.25, 27747.77, 0.00, 0.00, 0.00
249, 57715.29, 57667.52, 57776.51, 57748.34, 27506.23, 27516.25, 27543.54, 27536.88, 0.00, 0.00, 0.00
250, 58040.91, 57991.66, 58099.94, 58072.31, 27494.50, 27504.42, 27531.58, 27524.85, 0.00, 0.00, 0.00
251, 57992.25, 57941.98, 58049.27, 58021.13, 27726.76, 27737.26, 27763.86, 27757.45, -0.03, 0.39, 0.85
252, 58229.40, 58172.52, 58279.91, 58251.50, 27781.47, 27791.53, 27818.73, 27811.98, 0.00, 0.00, 0.00
253, 59589.61, 59523.21, 59629.47, 59601.39, 27612.16, 27621.79, 27649.20, 27642.47, 0.00, 0.00, 0.00
254, 60691.33, 60626.51, 60732.13, 60704.16, 27557.46, 27567.21, 27594.41, 27587.88, 0.00, 0.00, 0.00
255, 61281.84, 61221.16, 61321.74, 61293.91, 27806.04, 27816.12, 27843.10, 27836.84, 0.00, 0.00, 0.00
0, 62168.11, 62111.90, 62207.45, 62180.29, 27961.52, 27971.73, 27998.76, 27992.29, 0.00, 0.00, 0.00
1, 63090.05, 63031.49, 63126.80, 63100.27, 27766.70, 27776.71, 27804.25, 27797.52, 0.00, 0.00, 0.00
2, 63808.44, 63749.36, 63845.83, 63818.81, 27631.63, 27641.75, 27669.20, 27662.43, 0.00, 0.00, 0.00
3, 63943.49, 63881.39, 63978.54, 63950.71, 27786.48, 27796.65, 27823.83, 27817.24, 0.00, 0.00, 0.00
4, 64080.01, 64017.47, 64114.59, 64086.41, 27930.65, 27940.86, 27967.64, 27961.45, 0.00, 0.00, 0.00
5, 64744.26, 64680.02, 64777.23, 64749.36, 27800.23, 27810.15, 27836.79, 27830.56, -0.09, 0.35, 0.90
6, 65528.88, 65465.11, 65561.89, 65534.48, 27629.84, 27639.90, 27666.81, 27660.13, 0.00, 0.00, 0.00
7, 65542.76, 65480.75, 65577.69, 65549.87, 27737.11, 27747.03, 27774.05, 27767.48, 0.00, 0.00, 0.00
8, 65120.55, 65061.23, 65158.15, 65130.12, 27900.94, 27911.00, 27938.47, 27932.13, 0.00, 0.00, 0.00
9, 65078.51, 65016.33, 65113.49, 65085.62, 27766.86, 27776.76, 27804.76, 27798.21, 0.00, 0.00, 0.00
10, 65654.18, 65583.34, 65681.07, 65652.91, 27573.63, 27583.30, 27611.49, 27604.83, 0.00, 0.00, 0.00
11, 66342.41, 66260.05, 66358.73, 66329.96, 27652.39, 27662.21, 27690.28, 27684.02, 0.00, 0.00, 0.00
12, 66719.82, 66636.36, 66736.36, 66706.81, 27857.60, 27867.91, 27895.98, 27889.48, 0.00, 0.00, 0.00
13, 67265.07, 67177.96, 67278.70, 67248.77, 27810.96, 27820.84, 27849.15, 27842.56, 0.00, 0.00, 0.00
14, 68387.48, 68301.74, 68403.02, 68373.11, 27670.25, 27680.04, 27708.18, 27701.32, 0.00, 0.00, 0.00
15, 68027.15, 67967.77, 68068.08, 68038.38, 27670.25, 27680.51, 27708.12, 27701.43, 0.00, 0.00, 0.00
16, 66625.25, 66574.84, 66673.48, 66643.87, 27820.57, 27830.92, 27858.72, 27852.15, 0.01, 0.43, 0.96
17, 65697.50, 65648.77, 65746.85, 65717.61, 27768.13, 27778.46, 27806.66, 27800.43, 0.00, 0.00, 0.00
18, 65649.17, 65597.12, 65694.84, 65666.16, 27517.46, 27527.16, 27555.92, 27549.37, 0.00, 0.00, 0.00
19, 65461.91, 65412.27, 65509.59, 65481.09, 27480.66, 27490.43, 27519.11, 27512.38, 0.00, 0.00, 0.00
20, 64675.75, 64629.13, 64725.98, 64697.28, 27698.28, 27708.38, 27736.97, 27730.27, 0.00, 0.00, 0.00
21, 64058.00, 64012.27, 64109.07, 64080.06, 27767.13, 27777.54, 27806.11, 27799.40, 0.00, 0.00, 0.00
22, 63916.31, 63873.19, 63969.21, 63940.83, 27547.09, 27557.11, 27585.90, 27579.28, 0.00, 0.00, 0.00
23, 63736.24, 63695.83, 63791.34, 63762.98, 27462.78, 27472.82, 27501.50, 27494.52, 0.00, 0.00, 0.00
24, 62905.18, 62866.74, 62962.00, 62933.37, 27644.39, 27654.52, 27682.99, 27676.35, 0.00, 0.00, 0.00
25, 62137.42, 62100.95, 62195.71, 62167.29, 27756.69, 27766.99, 27795.42, 27788.83, 0.00, 0.00, 0.00
26, 62000.36, 61965.92, 62060.49, 62032.14, 27585.07, 27594.93, 27624.01, 27617.23, 0.00, 0.41, 0.98
27, 61922.22, 61888.49, 61982.52, 61954.50, 27442.33, 27451.88, 27481.04, 27474.05, 0.00, 0.00, 0.00
28, 61353.28, 61319.35, 61412.94, 61384.75, 27598.44, 27608.45, 27637.10, 27630.85, 0.00, 0.00, 0.00
29, 60804.07, 60770.46, 60863.93, 60835.66, 27752.95, 27763.46, 27792.00, 27785.54, 0.00, 0.00, 0.00
30, 60747.95, 60716.25, 60809.26, 60781.68, 27626.78, 27636.95, 27665.54, 27659.03, 0.00, 0.00, 0.00
31, 60845.45, 60814.18, 60907.00, 60879.85, 27453.06, 27462.58, 27491.73, 27485.29, 0.00, 0.00, 0.00
32, 60494.91, 60463.99, 60556.37, 60528.63, 27561.80, 27571.61, 27600.56, 27594.08, 0.00, 0.00, 0.00
33, 59909.13, 59878.96, 59970.93, 59942.44, 27743.72, 27753.94, 27782.88, 27776.04, 0.00, 0.00, 0.00
34, 59909.45, 59879.20, 59970.58, 59942.97, 27664.39, 27674.41, 27703.31, 27696.65, 0.00, 0.00, 0.00
35, 60114.48, 60087.59, 60178.67, 60151.85, 27473.73, 27483.70, 27512.49, 27505.90, 0.00, 0.00, 0.00
36, 59742.93, 59719.70, 59810.23, 59783.47, 27535.25, 27545.04, 27574.07, 27567.34, 0.01, 0.40, 0.92
37, 58881.18, 58861.62, 58952.03, 58924.85, 27727.05, 27736.95, 27766.01, 27759.70, 0.00, 0.00, 0.00
38, 58429.31, 58411.25, 58500.79, 58473.95, 27694.32, 27704.16, 27733.19, 27727.03, 0.00, 0.00, 0.00
39, 58504.91, 58488.14, 58576.63, 58550.46, 27480.08, 27489.83, 27519.09, 27512.83, 0.00, 0.00, 0.00
40, 58268.18, 58252.58, 58340.98, 58314.70, 27495.35, 27505.21, 27534.06, 27527.87, 0.00, 0.00, 0.00
41, 57505.31, 57490.23, 57578.43, 57551.67, 27701.99, 27711.78, 27740.59, 27734.22, 0.00, 0.00, 0.00
42, 57168.36, 57154.82, 57242.61, 57216.17, 27730.94, 27740.86, 27769.43, 27763.41, 0.00, 0.00, 0.00
43, 57314.50, 57303.88, 57390.79, 57365.13, 27520.83, 27530.49, 27559.48, 27552.93, 0.00, 0.00, 0.00
44, 56856.62, 56854.10, 56940.31, 56914.74, 27454.89, 27464.37, 27493.63, 27487.19, 0.00, 0.00, 0.00
45, 55766.95, 55767.96, 55853.81, 55827.79, 27638.62, 27648.68, 27677.49, 27671.15, 0.00, 0.00, 0.00
46, 55072.30, 55073.47, 55158.38, 55132.79, 27740.73, 27750.94, 27779.44, 27773.45, -0.03, 0.40, 0.92
47, 55160.80, 55162.29, 55246.11, 55221.30, 27556.32, 27566.54, 27595.35, 27588.91, 0.00, 0.00, 0.00
48, 55158.20, 55159.48, 55243.03, 55218.55, 27455.41, 27465.78, 27494.70, 27488.04, 0.00, 0.00, 0.00
49, 54572.36, 54573.21, 54656.63, 54631.89, 27627.29, 27637.46, 27666.18, 27659.57, 0.00, 0.00, 0.00
50, 54123.05, 54123.94, 54207.00, 54182.26, 27746.98, 27756.75, 27785.59, 27779.02, 0.00, 0.00, 0.00
51, 54267.31, 54268.22, 54350.68, 54326.29, 27602.82, 27612.63, 27641.53, 27634.87, 0.00, 0.00, 0.00
52, 54484.79, 54485.35, 54568.03, 54543.46, 27480.82, 27490.66, 27519.53, 27512.81, 0.00, 0.00, 0.00
53, 54153.11, 54153.27, 54235.95, 54211.20, 27612.56, 27622.49, 27651.25, 27644.93, 0.00, 0.00, 0.00
54, 53690.36, 53690.95, 53773.42, 53748.14, 27767.86, 27778.14, 27806.53, 27800.25, 0.00, 0.00, 0.00
55, 53837.89, 53838.33, 53920.34, 53896.07, 27642.87, 27652.86, 27681.40, 27674.90, 0.00, 0.00, 0.00
56, 54125.71, 54126.60, 54208.14, 54184.45, 27464.08, 27473.76, 27502.81, 27496.18, -0.00, 0.40, 0.95
57, 53881.07, 53882.01, 53964.08, 53940.19, 27569.63, 27579.35, 27608.18, 27601.90, 0.00, 0.00, 0.00
58, 53344.63, 53345.63, 53427.71, 53403.19, 27753.67, 27763.73, 27792.56, 27786.06, 0.00, 0.00, 0.00
59, 53344.29, 53344.98, 53426.66, 53402.32, 27679.53, 27689.59, 27718.46, 27711.65, 0.00, 0.00, 0.00
60, 53741.95, 53742.80, 53825.03, 53800.87, 27485.92, 27495.84, 27524.67, 27517.95, 0.00, 0.00, 0.00
61, 53602.32, 53603.06, 53685.18, 53661.04, 27534.06, 27544.23, 27572.84, 27566.43, 0.00, 0.00, 0.00
62, 53149.41, 53150.17, 53231.57, 53207.45, 27749.35, 27759.70, 27788.00, 27782.03, 0.00, 0.00, 0.00
63, 53119.41, 53120.10, 53201.71, 53177.35, 27728.88, 27739.21, 27767.46, 27761.31, 0.00, 0.00, 0.00
64, 53491.84, 53492.13, 53573.98, 53550.06, 27518.55, 27528.83, 27557.55, 27550.71, 0.00, 0.00, 0.00
65, 53492.02, 53492.66, 53574.47, 53550.62, 27513.90, 27523.87, 27552.77, 27546.24, 0.00, 0.00, 0.00
66, 52978.75, 52979.49, 53061.63, 53037.00, 27715.07, 27725.21, 27753.69, 27747.54, 0.00, 0.00, 0.00
67, 52821.60, 52821.93, 52903.94, 52879.06, 27752.95, 27763.41, 27791.73, 27785.21, -0.00, 0.39, 0.95
68, 53206.23, 53206.16, 53287.88, 53263.80, 27548.55, 27558.72, 27587.28, 27580.44, 0.00, 0.00, 0.00
69, 53386.29, 53385.64, 53467.92, 53443.85, 27495.30, 27505.23, 27533.91, 27526.93, 0.00, 0.00, 0.00
70, 53040.00, 53039.13, 53121.31, 53096.57, 27699.04, 27708.99, 27737.69, 27731.12, 0.00, 0.00, 0.00
71, 52828.93, 52827.96, 52909.77, 52885.19, 27778.10, 27788.20, 27816.59, 27810.11, 0.00, 0.00, 0.00
72, 53203.21, 53202.13, 53283.83, 53259.87, 27591.69, 27601.74, 27630.31, 27623.60, 0.00, 0.00, 0.00
73, 53387.61, 53386.83, 53468.68, 53444.67, 27471.23, 27481.27, 27510.24, 27503.20, 0.00, 0.00, 0.00
74, 52925.75, 52925.15, 53007.25, 52982.75, 27638.85, 27649.06, 27677.67, 27670.92, 0.00, 0.00, 0.00
75, 52528.25, 52527.47, 52609.50, 52584.58, 27764.06, 27774.14, 27802.62, 27796.07, 0.00, 0.00, 0.00
76, 52798.71, 52797.70, 52879.73, 52855.08, 27635.32, 27644.99, 27673.60, 27666.97, 0.00, 0.00, 0.00
77, 53151.06, 53149.83, 53231.73, 53207.61, 27489.11, 27498.59, 27527.47, 27520.47, 0.00, 0.39, 0.94
78, 52906.20, 52904.30, 52987.02, 52962.32, 27629.91, 27639.79, 27668.35, 27661.87, 0.00, 0.00, 0.00
79, 52466.72, 52464.55, 52547.36, 52522.24, 27776.15, 27785.79, 27814.26, 27808.38, 0.00, 0.00, 0.00
80, 52640.59, 52637.64, 52720.41, 52695.35, 27664.33, 27673.83, 27702.73, 27696.36, 0.00, 0.00, 0.00
81, 53076.76, 53073.07, 53155.80, 53131.57, 27497.14, 27506.70, 27535.74, 27528.92, 0.00, 0.00, 0.00
82, 52922.07, 52918.60, 53001.71, 52977.12, 27603.71, 27613.57, 27642.18, 27635.74, 0.00, 0.00, 0.00
83, 52488.96, 52485.65, 52568.98, 52543.81, 27797.32, 27807.56, 27835.92, 27829.60, 0.00, 0.00, 0.00
84, 52606.59, 52602.93, 52686.12, 52661.16, 27739.01, 27749.38, 27777.47, 27771.01, 0.00, 0.00, 0.00
85, 53029.02, 53025.11, 53107.95, 53083.60, 27525.08, 27534.87, 27563.30, 27556.62, 0.00, 0.00, 0.00
86, 52996.39, 52991.69, 53074.82, 53050.21, 27565.20, 27574.99, 27603.80, 27597.16, 0.00, 0.00, 0.00
87, 52609.25, 52603.80, 52687.62, 52662.16, 27787.98, 27798.15, 27827.05, 27820.54, -0.01, 0.39, 0.92
88, 52673.71, 52668.84, 52752.21, 52726.85, 27786.79, 27796.49, 27825.60, 27819.07, 0.00, 0.00, 0.00
89, 53137.31, 53133.25, 53216.21, 53191.72, 27556.50, 27566.25, 27595.11, 27588.69, 0.00, 0.00, 0.00
90, 53156.38, 53152.54, 53235.46, 53210.98, 27523.63, 27533.79, 27562.49, 27555.74, 0.00, 0.00, 0.00
91, 52662.61, 52658.83, 52742.61, 52717.35, 27753.91, 27764.31, 27792.56, 27786.37, 0.00, 0.00, 0.00
92, 52499.84, 52495.71, 52579.53, 52554.18, 27796.72, 27806.98, 27835.34, 27829.22, 0.00, 0.00, 0.00
93, 52940.29, 52935.95, 53019.25, 52994.55, 27567.30, 27577.22, 27605.54, 27599.35, 0.00, 0.00, 0.00
94, 53150.75, 53146.25, 53229.58, 53204.93, 27491.77, 27501.56, 27529.86, 27523.65, 0.00, 0.00, 0.00
95, 52732.37, 52728.01, 52811.54, 52786.30, 27709.43, 27719.74, 27748.10, 27741.78, 0.00, 0.00, 0.00
96, 52504.00, 52499.66, 52583.24, 52557.82, 27817.37, 27827.32, 27856.06, 27849.49, 0.00, 0.00, 0.00
97, 52888.96, 52884.76, 52968.34, 52943.37, 27608.74, 27618.78, 27647.41, 27640.61, -0.01, 0.40, 0.90
98, 53134.21, 53130.09, 53213.46, 53188.99, 27469.71, 27479.81, 27508.58, 27501.79, 0.00, 0.00, 0.00
99, 52760.22, 52756.35, 52840.19, 52815.14, 27656.28, 27666.61, 27695.29, 27688.71, 0.00, 0.00, 0.00
100, 52373.85, 52369.89, 52453.39, 52428.16, 27808.99, 27819.07, 27847.57, 27841.49, 0.00, 0.00, 0.00
101, 52653.13, 52648.84, 52732.17, 52707.54, 27639.36, 27649.06, 27677.81, 27671.66, 0.00, 0.00, 0.00
102, 53042.23, 53037.63, 53120.73, 53096.54, 27455.79, 27465.62, 27494.59, 27487.93, 0.00, 0.00, 0.00
103, 52778.59, 52774.55, 52857.71, 52833.00, 27599.66, 27609.97, 27638.65, 27632.21, 0.00, 0.00, 0.00
104, 52351.74, 52347.89, 52430.98, 52405.85, 27791.44, 27801.95, 27830.31, 27824.08, 0.00, 0.00, 0.00
105, 52548.64, 52544.64, 52627.47, 52603.18, 27658.18, 27668.64, 27697.07, 27690.48, 0.00, 0.00, 0.00
106, 52985.41, 52981.25, 53064.36, 53040.31, 27457.66, 27467.46, 27496.36, 27489.74, 0.00, 0.00, 0.00
107, 52841.94, 52838.14, 52921.53, 52896.88, 27548.32, 27557.82, 27587.06, 27580.73, -0.01, 0.40, 0.90
108, 52405.94, 52401.94, 52485.49, 52459.92, 27782.57, 27792.38, 27821.51, 27815.27, 0.00, 0.00, 0.00
109, 52563.99, 52559.12, 52642.00, 52617.26, 27712.90, 27722.94, 27751.77, 27745.55, 0.00, 0.00, 0.00
110, 53128.78, 53123.50, 53206.52, 53182.31, 27450.47, 27460.53, 27489.25, 27482.54, 0.00, 0.00, 0.00
111, 53144.85, 53139.32, 53222.59, 53198.02, 27499.42, 27509.41, 27538.11, 27531.47, 0.00, 0.00, 0.00
112, 52685.50, 52679.98, 52763.06, 52737.91, 27770.66, 27780.76, 27809.35, 27802.73, 0.00, 0.00, 0.00
113, 52744.66, 52738.13, 52820.88, 52795.94, 27765.96, 27776.24, 27804.79, 27798.42, 0.00, 0.00, 0.00
114, 53332.85, 53325.74, 53408.55, 53384.43, 27503.89, 27513.88, 27542.38, 27535.96, 0.00, 0.00, 0.00
115, 53470.49, 53463.11, 53546.08, 53521.90, 27475.50, 27485.54, 27514.06, 27507.64, 0.00, 0.00, 0.00
116, 53025.58, 53017.84, 53101.08, 53076.18, 27729.84, 27740.26, 27768.67, 27762.41, 0.00, 0.00, 0.00
117, 52917.35, 52909.73, 52992.79, 52967.66, 27785.18, 27795.15, 27823.76, 27817.53, 0.00, 0.00, 0.00
118, 53418.52, 53411.08, 53493.91, 53468.84, 27530.93, 27541.01, 27569.67, 27563.10, 0.03, 0.43, 0.90
119, 53648.66, 53641.08, 53724.00, 53699.53, 27440.99, 27450.65, 27479.61, 27472.95, 0.00, 0.00, 0.00
120, 53216.95, 53209.36, 53292.84, 53267.87, 27684.27, 27694.39, 27723.27, 27716.86, 0.00, 0.00, 0.00
121, 52900.83, 52893.37, 52976.94, 52951.66, 27801.72, 27812.07, 27840.50, 27834.38, 0.00, 0.00, 0.00
122, 53311.59, 53304.19, 53387.90, 53362.98, 27581.67, 27591.62, 27620.52, 27614.15, 0.00, 0.00, 0.00
123, 53646.35, 53638.64, 53722.50, 53698.01, 27433.23, 27442.96, 27471.81, 27465.04, 0.00, 0.00, 0.00
124, 53246.91, 53239.06, 53323.01, 53297.82, 27630.06, 27639.92, 27668.69, 27662.16, 0.00, 0.00, 0.00
125, 52852.13, 52844.42, 52927.90, 52902.46, 27799.00, 27809.28, 27838.05, 27831.52, 0.00, 0.00, 0.00
126, 53165.88, 53157.99, 53241.54, 53216.46, 27636.61, 27646.87, 27675.35, 27668.80, 0.00, 0.00, 0.00
127, 53599.50, 53591.39, 53675.34, 53650.62, 27441.04, 27451.14, 27480.04, 27473.00, 0.00, 0.00, 0.00
128, 53308.93, 53300.93, 53384.77, 53359.87, 27575.28, 27585.27, 27614.04, 27607.44, 0.00, 0.40, 0.89
129, 52826.47, 52818.67, 52902.62, 52877.43, 27787.13, 27797.16, 27825.87, 27819.63, 0.00, 0.00, 0.00
130, 53010.42, 53002.82, 53086.29, 53061.54, 27672.69, 27682.77, 27711.78, 27705.37, 0.00, 0.00, 0.00
131, 53506.52, 53498.54, 53582.14, 53557.59, 27428.58, 27438.51, 27467.70, 27460.75, 0.00, 0.00, 0.00
132, 53363.22, 53355.13, 53439.24, 53414.21, 27508.92, 27518.88, 27547.76, 27541.33, 0.00, 0.00, 0.00
133, 52844.84, 52836.57, 52920.61, 52895.36, 27747.63, 27757.87, 27786.48, 27780.15, 0.00, 0.00, 0.00
134, 52909.95, 52901.61, 52985.70, 52960.24, 27693.27, 27703.40, 27731.81, 27725.57, 0.00, 0.00, 0.00
135, 53435.38, 53427.06, 53511.06, 53486.23, 27435.60, 27445.21, 27473.96, 27467.03, 0.00, 0.00, 0.00
136, 53395.50, 53387.56, 53471.36, 53446.68, 27472.60, 27482.36, 27511.22, 27504.47, 0.00, 0.00, 0.00
137, 52860.51, 52852.51, 52936.66, 52911.29, 27725.28, 27735.16, 27763.68, 27757.58, 0.00, 0.00, 0.00
138, 52797.43, 52789.75, 52873.56, 52848.22, 27729.15, 27738.83, 27767.91, 27761.47, -0.00, 0.40, 0.90
139, 53336.09, 53328.33, 53412.09, 53387.45, 27465.89, 27475.52, 27504.85, 27497.85, 0.00, 0.00, 0.00
140, 53464.63, 53456.54, 53540.61, 53515.98, 27423.20, 27432.94, 27461.93, 27455.00, 0.00, 0.00, 0.00
141, 52937.04, 52928.79, 53013.11, 52987.69, 27687.02, 27696.96, 27725.59, 27719.25, 0.00, 0.00, 0.00
142, 52707.85, 52699.80, 52783.89, 52758.32, 27775.82, 27785.86, 27814.67, 27808.10, 0.00, 0.00, 0.00
143, 53177.26, 53168.96, 53252.92, 53228.22, 27516.63, 27526.24, 27555.54, 27548.88, 0.00, 0.00, 0.00
144, 53420.76, 53412.66, 53496.60, 53472.21, 27406.59, 27415.89, 27445.13, 27438.64, 0.00, 0.00, 0.00
145, 52957.38, 52949.80, 53033.89, 53008.93, 27636.77, 27646.63, 27675.01, 27668.82, 0.00, 0.00, 0.00
146, 52612.34, 52605.34, 52689.43, 52664.24, 27767.30, 27777.52, 27805.90, 27799.80, 0.00, 0.00, 0.00
147, 52978.19, 52971.80, 53055.24, 53030.45, 27562.92, 27572.87, 27601.79, 27595.15, 0.00, 0.00, 0.00
148, 53323.08, 53316.98, 53400.44, 53375.72, 27410.70, 27420.58, 27449.60, 27442.80, 0.05, 0.43, 0.87
149, 52953.20, 52947.23, 53030.92, 53006.11, 27606.04, 27616.21, 27644.79, 27638.20, 0.00, 0.00, 0.00
150, 52531.94, 52525.86, 52609.30, 52584.18, 27791.00, 27801.08, 27829.78, 27823.18, 0.00, 0.00, 0.00
151, 52831.41, 52825.22, 52908.16, 52883.42, 27625.59, 27635.76, 27664.39, 27657.62, 0.00, 0.00, 0.00
152, 53278.15, 53271.56, 53354.64, 53330.23, 27415.53, 27425.61, 27454.31, 27447.45, 0.00, 0.00, 0.00
153, 53046.75, 53040.40, 53123.68, 53098.76, 27556.37, 27566.43, 27595.31, 27588.62, 0.00, 0.00, 0.00
154, 52567.79, 52561.02, 52644.32, 52619.16, 27782.95, 27792.96, 27821.64, 27815.20, 0.00, 0.00, 0.00
155, 52764.42, 52757.49, 52840.57, 52815.70, 27678.97, 27688.96, 27717.48, 27711.16, 0.00, 0.00, 0.00
156, 53307.12, 53299.95, 53383.12, 53358.71, 27428.56, 27438.29, 27467.23, 27460.66, 0.00, 0.00, 0.00
157, 53211.37, 53204.05, 53287.41, 53262.77, 27506.68, 27516.92, 27545.75, 27538.76, 0.00, 0.00, 0.00
158, 52677.41, 52670.23, 52753.45, 52728.16, 27748.08, 27758.21, 27786.99, 27780.47, 0.00, 0.00, 0.00
159, 52712.81, 52705.79, 52789.07, 52763.97, 27700.27, 27710.06, 27739.03, 27732.86, 0.04, 0.40, 0.89
160, 53235.71, 53228.66, 53312.02, 53287.59, 27443.25, 27452.81, 27482.12, 27475.43, 0.00, 0.00, 0.00
161, 53236.85, 53229.98, 53313.51, 53288.99, 27455.05, 27464.84, 27493.79, 27487.30, 0.00, 0.00, 0.00
162, 52707.54, 52700.79, 52784.67, 52759.66, 27711.00, 27720.99, 27750.16, 27743.41, 0.00, 0.00, 0.00
163, 52597.43, 52590.37, 52673.89, 52648.95, 27718.11, 27728.37, 27757.27, 27750.94, 0.00, 0.00, 0.00
164, 53101.73, 53094.98, 53178.13, 53153.63, 27463.99, 27473.82, 27502.97, 27496.11, 0.00, 0.00, 0.00
165, 53265.88, 53259.13, 53342.61, 53318.16, 27407.80, 27417.72, 27446.47, 27439.87, 0.00, 0.00, 0.00
166, 52745.22, 52738.05, 52821.68, 52796.47, 27671.71, 27681.70, 27710.53, 27704.09, 0.00, 0.00, 0.00
167, 52473.38, 52466.41, 52550.00, 52524.65, 27754.27, 27764.35, 27793.34, 27786.93, 0.00, 0.00, 0.00
168, 52948.29, 52941.40, 53024.91, 53000.05, 27502.28, 27512.22, 27541.17, 27534.46, 0.00, 0.00, 0.00
169, 53254.55, 53247.20, 53330.77, 53306.41, 27381.31, 27391.06, 27419.82, 27413.16, 0.05, 0.42, 0.89
170, 52820.05, 52812.77, 52896.56, 52871.57, 27595.48, 27605.92, 27634.11, 27627.76, 0.00, 0.00, 0.00
171, 52463.81, 52456.79, 52540.16, 52515.29, 27734.85, 27745.29, 27773.67, 27767.66, 0.00, 0.00, 0.00
172, 52801.66, 52794.44, 52877.70, 52852.91, 27541.86, 27551.81, 27580.60, 27574.01, 0.00, 0.00, 0.00
173, 53202.07, 53194.85, 53278.11, 53253.50, 27373.13, 27382.74, 27411.78, 27405.05, 0.00, 0.00, 0.00
174, 52885.93, 52878.26, 52962.01, 52936.59, 27550.78, 27560.88, 27589.72, 27583.06, 0.00, 0.00, 0.00
175, 52454.45, 52446.76, 52530.60, 52505.18, 27739.25, 27749.47, 27777.81, 27771.59, 0.00, 0.00, 0.00
176, 52745.89, 52738.02, 52821.46, 52796.43, 27588.85, 27598.75, 27627.72, 27621.08, 0.00, 0.00, 0.00
177, 53214.50, 53206.58, 53290.04, 53265.30, 27380.13, 27389.67, 27419.00, 27412.18, 0.00, 0.00, 0.00
178, 52951.62, 52943.75, 53027.50, 53002.46, 27515.89, 27525.66, 27554.47, 27547.99, 0.00, 0.00, 0.00
179, 52423.06, 52415.58, 52499.24, 52473.69, 27768.76, 27778.66, 27807.31, 27800.81, 0.02, 0.40, 0.91
180, 52567.28, 52559.93, 52643.30, 52617.86, 27674.23, 27684.29, 27712.88, 27706.75, 0.00, 0.00, 0.00
181, 53077.81, 53070.46, 53153.83, 53128.89, 27419.58, 27429.57, 27458.69, 27452.10, 0.00, 0.00, 0.00
182, 52998.98, 52991.63, 53075.33, 53050.46, 27472.37, 27482.09, 27511.24, 27504.85, 0.00, 0.00, 0.00
183, 52473.54, 52466.20, 52549.87, 52524.50, 27721.95, 27731.76, 27760.66, 27754.29, 0.00, 0.00, 0.00
184, 52476.39, 52469.45, 52552.64, 52527.58, 27696.29, 27706.42, 27735.05, 27728.70, 0.00, 0.00, 0.00
185, 52988.59, 52981.43, 53064.40, 53039.97, 27444.28, 27453.98, 27482.74, 27476.08, 0.00, 0.00, 0.00
186, 52978.55, 52971.46, 53054.81, 53030.25, 27441.10, 27450.51, 27479.77, 27472.80, 0.00, 0.00, 0.00
187, 52412.76, 52406.34, 52489.89, 52464.46, 27681.54, 27691.58, 27719.98, 27713.90, 0.00, 0.00, 0.00
188, 52258.62, 52252.07, 52335.58, 52310.32, 27705.08, 27715.18, 27743.50, 27737.64, 0.00, 0.00, 0.00
189, 52735.52, 52729.17, 52812.25, 52787.58, 27453.48, 27463.12, 27492.22, 27485.56, 0.00, 0.39, 0.91
190, 52893.52, 52887.20, 52970.23, 52945.63, 27391.12, 27400.62, 27429.95, 27423.11, 0.00, 0.00, 0.00
191, 52391.73, 52385.54, 52468.80, 52443.92, 27632.34, 27642.56, 27671.30, 27665.00, 0.00, 0.00, 0.00
192, 52111.77, 52106.65, 52189.73, 52164.90, 27722.67, 27732.81, 27761.74, 27755.59, 0.00, 0.00, 0.00
193, 52497.41, 52493.02, 52575.64, 52551.50, 27473.15, 27482.61, 27511.58, 27505.12, 0.00, 0.00, 0.00
194, 52728.08, 52723.43, 52806.33, 52781.99, 27343.78, 27353.48, 27382.41, 27375.74, 0.00, 0.00, 0.00
195, 52273.29, 52268.39, 52351.63, 52326.41, 27559.10, 27569.67, 27598.32, 27591.80, 0.00, 0.00, 0.00
196, 51914.03, 51908.75, 51991.77, 51966.44, 27714.98, 27725.39, 27754.12, 27747.95, 0.00, 0.00, 0.00
197, 52253.14, 52248.30, 52330.57, 52306.01, 27538.91, 27548.77, 27577.83, 27571.48, 0.00, 0.00, 0.00
198, 52636.50, 52631.56, 52714.22, 52689.92, 27357.51, 27367.21, 27396.40, 27389.74, 0.00, 0.00, 0.00
199, 52319.09, 52314.34, 52397.18, 52372.35, 27515.87, 27525.57, 27554.49, 27548.28, -0.00, 0.39, 0.91
200, 51886.53, 51882.15, 51964.81, 51939.48, 27700.16, 27710.26, 27738.65, 27732.43, 0.00, 0.00, 0.00
201, 52119.24, 52114.86, 52197.36, 52172.68, 27551.45, 27561.18, 27590.05, 27583.62, 0.00, 0.00, 0.00
202, 52529.30, 52524.83, 52607.36, 52583.01, 27357.28, 27366.76, 27396.17, 27389.16, 0.00, 0.00, 0.00
203, 52341.77, 52337.19, 52419.64, 52395.35, 27471.25, 27481.29, 27510.37, 27503.46, 0.00, 0.00, 0.00
204, 51884.52, 51880.39, 51962.68, 51938.01, 27671.23, 27681.38, 27710.17, 27703.89, 0.00, 0.00, 0.00
205, 51990.16, 51986.82, 52068.92, 52044.52, 27589.45, 27599.44, 27628.23, 27621.95, 0.00, 0.00, 0.00
206, 52408.76, 52405.59, 52487.57, 52463.41, 27360.19, 27370.11, 27399.08, 27392.04, 0.00, 0.00, 0.00
207, 52341.64, 52338.42, 52420.65, 52396.53, 27419.67, 27429.41, 27458.40, 27451.85, 0.00, 0.00, 0.00
208, 51854.86, 51852.02, 51934.48, 51909.98, 27650.92, 27660.82, 27689.70, 27683.30, 0.00, 0.00, 0.00
209, 51835.17, 51832.98, 51915.16, 51890.60, 27625.84, 27635.99, 27664.75, 27658.23, 0.00, 0.00, 0.00
210, 52274.76, 52272.77, 52354.54, 52330.64, 27380.24, 27390.38, 27419.31, 27412.56, -0.02, 0.39, 0.92
211, 52267.74, 52265.62, 52347.74, 52323.55, 27383.26, 27393.34, 27422.04, 27415.22, 0.00, 0.00, 0.00
212, 51757.65, 51756.31, 51838.41, 51813.69, 27608.18, 27618.51, 27647.05, 27640.28, 0.00, 0.00, 0.00
213, 51602.09, 51601.30, 51683.24, 51658.52, 27648.86, 27659.25, 27687.75, 27680.94, 0.00, 0.00, 0.00
214, 51987.83, 51987.05, 52069.15, 52044.87, 27424.85, 27434.89, 27463.56, 27456.84, 0.00, 0.00, 0.00
215, 52132.31, 52131.71, 52213.85, 52189.69, 27357.06, 27366.67, 27395.88, 27389.07, 0.00, 0.00, 0.00
216, 51562.03, 51562.43, 51644.40, 51619.86, 27583.42, 27593.54, 27622.62, 27615.94, 0.00, 0.00, 0.00
217, 51135.76, 51136.77, 51218.39, 51193.41, 27696.85, 27707.09, 27735.54, 27729.44, 0.00, 0.00, 0.00
218, 51419.65, 51420.61, 51501.97, 51477.68, 27507.20, 27516.90, 27545.98, 27539.45, 0.00, 0.00, 0.00
219, 51586.24, 51587.22, 51668.54, 51644.69, 27423.76, 27433.50, 27462.94, 27455.99, 0.00, 0.00, 0.00
220, 51133.95, 51135.07, 51216.63, 51192.29, 27620.43, 27630.60, 27659.48, 27652.77, -0.02, 0.39, 0.91
221, 50812.09, 50813.54, 50894.79, 50870.29, 27721.39, 27731.34, 27760.11, 27753.58, 0.00, 0.00, 0.00
222, 51131.63, 51132.16, 51212.98, 51189.23, 27525.57, 27535.07, 27564.19, 27557.51, 0.00, 0.00, 0.00
223, 51540.86, 51540.73, 51621.53, 51598.17, 27339.40, 27349.01, 27378.16, 27371.19, 0.00, 0.00, 0.00
224, 51306.17, 51306.39, 51387.73, 51363.70, 27470.61, 27480.17, 27509.32, 27502.55, 0.00, 0.00, 0.00
225, 50910.43, 50911.10, 50992.24, 50967.92, 27639.36, 27649.20, 27678.30, 27671.66, 0.00, 0.00, 0.00
226, 51092.09, 51092.71, 51173.78, 51149.80, 27545.86, 27556.04, 27584.69, 27578.10, 0.00, 0.00, 0.00
227, 51413.17, 51413.44, 51494.57, 51470.57, 27379.23, 27389.29, 27418.50, 27411.69, 0.00, 0.00, 0.00
228, 51225.73, 51225.91, 51307.31, 51283.01, 27489.11, 27499.17, 27528.09, 27521.52, 0.00, 0.00, 0.00
229, 50813.02, 50813.02, 50894.23, 50869.80, 27685.12, 27694.93, 27723.72, 27717.26, 0.00, 0.00, 0.00
230, 50983.43, 50982.90, 51063.92, 51040.18, 27571.26, 27581.67, 27610.39, 27603.53, -0.02, 0.39, 0.90
231, 51413.13, 51412.36, 51493.19, 51469.83, 27356.81, 27366.67, 27395.82, 27388.98, 0.00, 0.00, 0.00
232, 51352.75, 51352.10, 51433.60, 51409.32, 27417.36, 27427.27, 27456.37, 27449.44, 0.00, 0.00, 0.00
233, 50835.75, 50835.49, 50917.14, 50892.35, 27645.53, 27655.34, 27684.36, 27677.56, 0.00, 0.00, 0.00
234, 50775.32, 50775.45, 50856.59, 50832.25, 27665.33, 27674.95, 27703.82, 27697.34, 0.00, 0.00, 0.00
235, 51240.34, 51240.21, 51321.01, 51297.12, 27416.83, 27426.77, 27455.38, 27448.77, 0.00, 0.00, 0.00
236, 51317.66, 51317.17, 51398.37, 51374.45, 27376.95, 27386.74, 27415.53, 27408.67, 0.00, 0.00, 0.00
237, 50863.81, 50863.65, 50944.99, 50920.45, 27587.15, 27596.94, 27625.88, 27619.24, 0.00, 0.00, 0.00
238, 50720.42, 50720.73, 50801.96, 50777.39, 27624.83, 27634.80, 27663.84, 27656.97, 0.00, 0.00, 0.00
239, 51113.54, 51113.66, 51194.90, 51170.83, 27414.26, 27423.94, 27453.06, 27446.27, 0.00, 0.00, 0.00
240, 51286.14, 51285.92, 51367.13, 51343.27, 27358.49, 27368.28, 27397.52, 27390.52, -0.02, 0.40, 0.90
241, 50866.49, 50866.22, 50947.80, 50923.17, 27563.25, 27573.02, 27602.12, 27595.44, 0.00, 0.00, 0.00
242, 50618.23, 50618.38, 50699.54, 50675.23, 27651.86, 27662.03, 27690.93, 27684.38, 0.00, 0.00, 0.00
243, 50965.13, 50965.35, 51046.13, 51022.44, 27459.92, 27469.94, 27499.04, 27492.35, 0.00, 0.00, 0.00
244, 51217.64, 51217.55, 51298.46, 51274.88, 27346.33, 27355.83, 27385.15, 27378.34, 0.00, 0.00, 0.00
245, 50855.04, 50854.93, 50936.11, 50912.00, 27514.17, 27524.07, 27552.95, 27546.54, 0.00, 0.00, 0.00
246, 50531.95, 50532.42, 50613.42, 50588.95, 27653.64, 27663.77, 27692.54, 27686.23, 0.00, 0.00, 0.00
247, 50789.96, 50789.93, 50870.78, 50846.82, 27503.06, 27513.12, 27542.24, 27535.36, 0.00, 0.00, 0.00
248, 51137.84, 51137.79, 51218.75, 51195.28, 27342.04, 27351.81, 27381.09, 27374.05, 0.00, 0.00, 0.00
249, 50883.05, 50883.32, 50964.41, 50940.20, 27469.42, 27479.37, 27508.36, 27502.05, 0.00, 0.00, 0.00
250, 50486.09, 50486.40, 50567.56, 50542.77, 27639.81, 27649.96, 27678.86, 27672.49, 0.00, 0.00, 0.00
251, 50671.65, 50671.63, 50752.50, 50728.31, 27529.86, 27539.76, 27568.86, 27562.34, -0.00, 0.40, 0.88
252, 51075.70, 51075.66, 51156.77, 51132.81, 27341.05, 27350.67, 27379.72, 27372.97, 0.00, 0.00, 0.00
253, 50935.27, 50935.06, 51016.65, 50992.39, 27426.57, 27436.25, 27465.29, 27458.67, 0.00, 0.00, 0.00
254, 50501.06, 50500.81, 50581.84, 50557.59, 27617.50, 27627.34, 27656.35, 27649.89, 0.00, 0.00, 0.00
255, 50559.36, 50558.59, 50639.71, 50615.52, 27575.19, 27585.43, 27614.57, 27607.78, 0.00, 0.00, 0.00
0, 50976.77, 50975.99, 51057.29, 51033.34, 27370.40, 27380.28, 27409.45, 27402.81, 0.00, 0.00, 0.00
1, 50912.45, 50912.13, 50993.07, 50968.77, 27397.05, 27406.99, 27436.03, 27429.72, 0.00, 0.00, 0.00
2, 50496.77, 50496.01, 50577.23, 50552.56, 27596.69, 27607.15, 27635.81, 27629.68, 0.00, 0.00, 0.00
3, 50480.81, 50479.76, 50561.25, 50536.27, 27601.23, 27611.18, 27640.10, 27633.77, 0.00, 0.00, 0.00
4, 50933.77, 50932.32, 51013.92, 50989.65, 27390.03, 27399.59, 27428.96, 27422.28, 0.00, 0.00, 0.00
5, 51013.34, 51012.36, 51093.79, 51069.64, 27361.57, 27371.43, 27400.80, 27394.14, -0.02, 0.40, 0.90
6, 50551.66, 50551.29, 50632.82, 50607.95, 27579.50, 27589.32, 27618.42, 27612.14, 0.00, 0.00, 0.00
7, 50401.30, 50400.75, 50482.20, 50457.30, 27648.86, 27658.79, 27687.80, 27681.38, 0.00, 0.00, 0.00
8, 50811.70, 50811.50, 50892.75, 50868.34, 27427.40, 27436.92, 27466.31, 27459.21, 0.00, 0.00, 0.00
9, 50964.23, 50964.52, 51045.73, 51021.68, 27343.02, 27352.72, 27382.23, 27374.87, 0.00, 0.00, 0.00
10, 50509.38, 50509.64, 50590.76, 50566.55, 27535.16, 27545.17, 27574.36, 27567.72, 0.00, 0.00, 0.00
11, 50249.43, 50249.29, 50330.18, 50305.77, 27637.35, 27647.52, 27676.33, 27670.07, 0.00, 0.00, 0.00
12, 50619.84, 50619.39, 50700.21, 50676.23, 27458.98, 27469.27, 27498.28, 27491.57, 0.00, 0.00, 0.00
13, 50923.35, 50922.28, 51003.55, 50979.34, 27348.05, 27358.11, 27387.08, 27380.44, 0.00, 0.00, 0.00
14, 50621.29, 50619.84, 50701.29, 50677.13, 27512.61, 27522.37, 27551.52, 27544.95, 0.00, 0.00, 0.00
15, 50344.13, 50342.34, 50423.88, 50399.29, 27657.67, 27667.37, 27696.60, 27690.14, 0.05, 0.39, 0.81
16, 50651.49, 50649.70, 50731.24, 50707.01, 27511.04, 27521.05, 27550.00, 27543.90, 0.00, 0.00, 0.00
17, 51007.71, 51005.85, 51087.26, 51062.96, 27328.92, 27338.93, 27367.90, 27361.28, 0.00, 0.00, 0.00
18, 50778.94, 50776.75, 50858.78, 50833.88, 27461.71, 27471.41, 27500.63, 27494.03, 0.00, 0.00, 0.00
19, 50407.09, 50404.99, 50486.84, 50461.90, 27638.36, 27648.39, 27677.34, 27671.26, 0.00, 0.00, 0.00
20, 50583.45, 50581.19, 50663.00, 50638.23, 27530.22, 27540.10, 27569.42, 27562.90, 0.00, 0.00, 0.00
21, 51008.78, 51006.54, 51088.35, 51064.08, 27337.21, 27346.78, 27376.24, 27369.44, 0.00, 0.00, 0.00
22, 50904.93, 50902.83, 50984.35, 50960.19, 27415.29, 27425.01, 27454.15, 27447.52, 0.00, 0.00, 0.00
23, 50481.73, 50479.42, 50561.05, 50536.53, 27617.05, 27627.00, 27656.01, 27649.62, 0.00, 0.00, 0.00
24, 50549.41, 50547.29, 50628.60, 50604.14, 27571.39, 27581.56, 27610.42, 27604.40, 0.00, 0.00, 0.00
25, 50998.95, 50996.53, 51078.03, 51054.00, 27356.84, 27366.74, 27396.04, 27389.92, 0.01, 0.39, 0.87
26, 50968.17, 50965.91, 51047.32, 51023.35, 27375.05, 27385.02, 27414.19, 27407.55, 0.00, 0.00, 0.00
27, 50548.38, 50546.37, 50628.11, 50603.52, 27593.14, 27603.26, 27631.96, 27625.73, 0.00, 0.00, 0.00
28, 50494.64, 50492.43, 50574.31, 50549.63, 27592.63, 27602.97, 27631.38, 27625.30, 0.00, 0.00, 0.00
29, 50909.09, 50906.75, 50988.53, 50964.41, 27386.47, 27396.55, 27425.59, 27418.86, 0.00, 0.00, 0.00
30, 51003.44, 51001.38, 51083.26, 51059.12, 27357.35, 27367.10, 27396.11, 27389.51, 0.00, 0.00, 0.00
31, 50539.04, 50537.25, 50618.96, 50594.31, 27573.89, 27583.93, 27612.74, 27606.55, 0.00, 0.00, 0.00
32, 50401.75, 50399.92, 50481.52, 50456.87, 27626.60, 27636.43, 27665.38, 27658.96, 0.00, 0.00, 0.00
33, 50800.55, 50798.38, 50880.01, 50855.74, 27424.72, 27434.11, 27463.59, 27456.64, 0.00, 0.00, 0.00
34, 51010.48, 51008.67, 51090.25, 51066.09, 27340.59, 27350.00, 27379.28, 27372.44, 0.00, 0.00, 0.00
35, 50621.78, 50620.29, 50702.14, 50677.44, 27523.40, 27533.39, 27562.56, 27555.81, 0.13, 0.41, 0.83
36, 50351.26, 50349.56, 50431.68, 50406.38, 27631.85, 27642.04, 27671.08, 27664.69, 0.00, 0.00, 0.00
37, 50667.91, 50665.79, 50747.53, 50723.13, 27465.02, 27475.08, 27504.16, 27497.67, 0.00, 0.00, 0.00
38, 50968.21, 50966.25, 51048.05, 51023.84, 27320.74, 27330.53, 27359.63, 27353.04, 0.00, 0.00, 0.00
39, 50667.69, 50666.02, 50747.71, 50723.06, 27482.54, 27492.38, 27521.34, 27514.86, 0.00, 0.00, 0.00
40, 50336.11, 50334.18, 50415.79, 50390.91, 27638.47, 27648.59, 27677.29, 27670.59, 0.00, 0.00, 0.00
41, 50570.77, 50568.79, 50650.23, 50625.65, 27505.07, 27514.79, 27543.74, 27536.97, 0.00, 0.00, 0.00
42, 50948.41, 50946.29, 51028.00, 51003.66, 27336.38, 27345.97, 27374.94, 27368.35, 0.00, 0.00, 0.00
43, 50747.71, 50745.54, 50827.30, 50802.88, 27451.27, 27461.17, 27489.96, 27483.75, 0.00, 0.00, 0.00
44, 50345.16, 50343.17, 50424.66, 50400.03, 27622.40, 27632.39, 27661.33, 27655.01, 0.00, 0.00, 0.00
45, 50485.10, 50482.82, 50564.41, 50540.11, 27544.97, 27554.67, 27583.97, 27577.74, 0.00, 0.00, 0.00
46, 50904.64, 50902.12, 50983.41, 50959.58, 27349.17, 27358.71, 27388.20, 27381.67, 0.06, 0.39, 0.87
47, 50811.17, 50808.75, 50890.18, 50866.13, 27406.88, 27416.29, 27445.88, 27438.98, 0.00, 0.00, 0.00
48, 50383.11, 50380.23, 50462.14, 50437.27, 27614.26, 27624.05, 27653.22, 27646.63, 0.00, 0.00, 0.00
49, 50431.25, 50428.44, 50510.27, 50485.79, 27581.98, 27591.80, 27620.94, 27614.44, 0.00, 0.00, 0.00
50, 50887.97, 50885.42, 50967.14, 50942.60, 27370.45, 27379.99, 27409.41, 27402.66, 0.00, 0.00, 0.00
51, 50916.29, 50913.72, 50995.30, 50971.12, 27389.33, 27399.01, 27428.47, 27421.43, 0.00, 0.00, 0.00
52, 50487.38, 50484.52, 50566.39, 50541.76, 27599.24, 27609.23, 27637.84, 27631.20, 0.00, 0.00, 0.00
53, 50414.34, 50411.36, 50493.17, 50468.54, 27605.01, 27614.93, 27643.81, 27637.06, 0.00, 0.00, 0.00
54, 50853.01, 50849.86, 50931.46, 50907.37, 27394.86, 27404.31, 27433.61, 27427.15, 0.00, 0.00, 0.00
55, 50982.27, 50979.28, 51060.97, 51036.83, 27356.34, 27366.11, 27394.92, 27388.69, 0.00, 0.00, 0.00
56, 50563.62, 50560.70, 50642.70, 50617.96, 27570.99, 27580.96, 27609.83, 27603.38, 0.02, 0.39, 0.88
57, 50392.23, 50389.28, 50471.24, 50446.23, 27629.64, 27639.25, 27668.31, 27662.09, 0.00, 0.00, 0.00
58, 50780.43, 50777.48, 50859.00, 50834.70, 27420.47, 27430.08, 27459.16, 27452.72, 0.00, 0.00, 0.00
59, 50993.74, 50990.81, 51072.41, 51048.54, 27332.18, 27342.04, 27370.96, 27364.37, 0.00, 0.00, 0.00
60, 50637.34, 50634.43, 50716.73, 50692.21, 27516.45, 27526.73, 27555.32, 27548.97, 0.00, 0.00, 0.00
61, 50336.42, 50333.20, 50415.09, 50390.35, 27651.41, 27661.62, 27690.48, 27684.04, 0.00, 0.00, 0.00
62, 50661.99, 50658.66, 50740.45, 50716.29, 27481.45, 27491.15, 27520.47, 27513.86, 0.00, 0.00, 0.00
63, 50982.50, 50979.48, 51061.29, 51037.03, 27345.41, 27355.09, 27384.42, 27377.51, 0.00, 0.00, 0.00
64, 50698.80, 50695.95, 50778.00, 50753.05, 27476.55, 27486.70, 27515.40, 27508.69, 0.00, 0.00, 0.00
65, 50342.30, 50339.50, 50421.31, 50396.21, 27623.54, 27633.64, 27662.63, 27656.04, 0.00, 0.00, 0.00
66, 50554.04, 50551.55, 50633.23, 50608.55, 27516.09, 27526.20, 27555.12, 27548.28, 0.01, 0.39, 0.89
67, 50896.73, 50893.67, 50975.41, 50951.36, 27353.30, 27363.25, 27392.58, 27385.36, 0.00, 0.00, 0.00
68, 50678.31, 50675.52, 50757.43, 50732.82, 27456.99, 27467.19, 27496.20, 27489.54, 0.00, 0.00, 0.00
69, 50242.99, 50240.64, 50322.47, 50297.19, 27659.19, 27669.16, 27698.48, 27691.87, 0.00, 0.00, 0.00
70, 50281.14, 50278.95, 50360.71, 50335.50, 27613.37, 27623.04, 27652.35, 27645.89, 0.00, 0.00, 0.00
71, 50610.67, 50608.62, 50689.84, 50665.52, 27455.00, 27464.86, 27494.23, 27487.50, 0.00, 0.00, 0.00
72, 50543.51, 50541.63, 50623.30, 50598.67, 27485.80, 27495.68, 27524.99, 27518.10, 0.00, 0.00, 0.00
73, 50113.82, 50111.80, 50193.50, 50168.89, 27680.56, 27690.44, 27719.56, 27712.72, 0.00, 0.00, 0.00
74, 50126.49, 50124.77, 50206.11, 50181.70, 27629.37, 27639.23, 27668.62, 27661.89, 0.00, 0.00, 0.00
75, 50565.57, 50564.70, 50645.90, 50621.69, 27390.72, 27400.31, 27429.70, 27423.04, 0.00, 0.00, 0.00
76, 50581.19, 50580.50, 50661.93, 50637.72, 27393.45, 27403.51, 27432.43, 27425.84, 0.01, 0.37, 0.89
77, 50080.56, 50079.82, 50161.61, 50136.57, 27607.26, 27617.63, 27646.29, 27640.01, 0.00, 0.00, 0.00
78, 49959.88, 49959.43, 50040.97, 50015.96, 27642.65, 27652.57, 27681.47, 27675.30, 0.00, 0.00, 0.00
79, 50348.73, 50348.40, 50429.85, 50405.48, 27432.70, 27442.35, 27471.59, 27464.95, 0.00, 0.00, 0.00
80, 50462.61, 50462.44, 50543.51, 50519.55, 27373.22, 27383.32, 27412.25, 27405.54, 0.00, 0.00, 0.00
81, 50105.86, 50105.32, 50186.26, 50161.76, 27568.69, 27578.95, 27607.62, 27601.36, 0.00, 0.00, 0.00
82, 50060.11, 50057.11, 50138.09, 50113.41, 27638.89, 27649.17, 27678.30, 27671.77, 0.00, 0.00, 0.00
83, 50612.53, 50608.21, 50689.15, 50664.86, 27457.84, 27467.59, 27497.14, 27490.25, 0.00, 0.00, 0.00
84, 50978.54, 50974.87, 51055.81, 51031.63, 27356.48, 27365.93, 27395.64, 27388.53, 0.00, 0.00, 0.00
85, 50681.46, 50678.73, 50759.69, 50735.04, 27541.42, 27551.07, 27580.55, 27574.16, 0.00, 0.00, 0.00
86, 50433.13, 50431.10, 50511.32, 50486.75, 27665.33, 27675.41, 27704.56, 27698.10, 0.00, 0.00, 0.00
87, 50799.95, 50797.73, 50877.53, 50853.68, 27502.55, 27512.45, 27541.80, 27534.80, 0.04, 0.37, 0.88
88, 51147.59, 51144.81, 51224.47, 51201.05, 27365.62, 27375.43, 27404.65, 27397.85, 0.00, 0.00, 0.00
89, 50847.20, 50843.85, 50923.84, 50899.68, 27547.05, 27557.33, 27586.14, 27579.71, 0.00, 0.00, 0.00
90, 50496.81, 50493.53, 50573.66, 50548.89, 27757.09, 27767.41, 27796.47, 27790.21, 0.00, 0.00, 0.00
91, 50652.23, 50649.01, 50728.58, 50704.55, 27674.88, 27685.27, 27714.22, 27707.60, 0.00, 0.00, 0.00
92, 51023.44, 51019.62, 51099.19, 51075.39, 27493.07, 27503.51, 27532.83, 27525.97, 0.00, 0.00, 0.00
93, 50912.31, 50907.01, 50987.19, 50962.85, 27608.56, 27619.00, 27648.15, 27641.69, 0.00, 0.00, 0.00
94, 50588.39, 50581.32, 50661.86, 50637.00, 27815.54, 27825.71, 27854.83, 27848.57, 0.00, 0.00, 0.00
95, 50797.82, 50790.05, 50870.64, 50845.79, 27754.41, 27764.42, 27793.77, 27787.20, 0.00, 0.00, 0.00
96, 51289.79, 51282.79, 51363.14, 51339.12, 27562.87, 27573.07, 27602.35, 27595.64, 0.00, 0.00, 0.00
97, 51226.64, 51220.12, 51300.34, 51276.31, 27633.73, 27643.81, 27672.98, 27666.27, 0.02, 0.38, 0.90
98, 50786.71, 50779.86, 50860.48, 50835.64, 27853.65, 27863.88, 27892.81, 27886.62, 0.00, 0.00, 0.00
99, 50791.05, 50784.37, 50864.95, 50839.91, 27840.19, 27850.70, 27879.51, 27873.16, 0.00, 0.00, 0.00
100, 51264.89, 51257.64, 51338.11, 51313.88, 27631.09, 27641.40, 27670.21, 27664.06, 0.00, 0.00, 0.00
101, 51368.15, 51360.17, 51441.38, 51417.08, 27633.28, 27643.36, 27672.67, 27666.09, 0.00, 0.00, 0.00
102, 50951.09, 50943.45, 51024.47, 50999.79, 27862.07, 27872.54, 27901.41, 27895.29, 0.00, 0.00, 0.00
103, 50865.06, 50856.97, 50938.06, 50913.05, 27909.24, 27919.70, 27948.35, 27942.34, 0.00, 0.00, 0.00
104, 51370.03, 51361.20, 51442.05, 51417.59, 27696.04, 27706.01, 27735.18, 27728.77, 0.00, 0.00, 0.00
105, 51575.89, 51567.02, 51648.04, 51623.68, 27641.33, 27651.32, 27680.69, 27673.89, 0.00, 0.00, 0.00
106, 51187.95, 51179.08, 51260.59, 51235.43, 27861.45, 27871.42, 27900.77, 27894.44, 0.00, 0.00, 0.00
107, 50996.11, 50986.76, 51068.39, 51043.09, 27951.62, 27961.88, 27991.22, 27984.74, 0.01, 0.39, 0.88
108, 51431.12, 51420.99, 51502.17, 51477.61, 27758.16, 27768.20, 27797.54, 27790.79, 0.00, 0.00, 0.00
109, 51774.42, 51763.26, 51844.85, 51820.11, 27630.40, 27640.59, 27669.69, 27662.90, 0.00, 0.00, 0.00
110, 51472.18, 51461.07, 51543.43, 51517.84, 27821.26, 27831.56, 27860.62, 27854.34, 0.00, 0.00, 0.00
111, 51207.38, 51196.80, 51279.17, 51253.73, 27962.66, 27972.74, 28001.62, 27995.67, 0.00, 0.00, 0.00
112, 51478.10, 51467.48, 51549.38, 51524.52, 27788.67, 27798.57, 27827.99, 27821.44, 0.00, 0.00, 0.00
113, 51876.34, 51865.30, 51946.86, 51922.32, 27633.75, 27643.68, 27673.09, 27666.61, 0.00, 0.00, 0.00
114, 51660.42, 51649.09, 51731.23, 51706.20, 27774.25, 27784.42, 27813.35, 27807.31, 0.00, 0.00, 0.00
115, 51284.94, 51273.27, 51355.66, 51330.09, 27956.06, 27966.35, 27995.45, 27989.05, 0.00, 0.00, 0.00
116, 51553.38, 51541.22, 51623.07, 51598.08, 27838.38, 27848.80, 27878.03, 27871.35, 0.00, 0.00, 0.00
117, 52086.38, 52073.64, 52155.60, 52130.88, 27626.51, 27636.52, 27665.78, 27658.96, 0.00, 0.39, 0.86
118, 52035.33, 52022.07, 52104.57, 52079.29, 27721.71, 27731.99, 27761.11, 27754.52, 0.00, 0.00, 0.00
119, 51643.32, 51630.16, 51712.61, 51687.02, 27923.38, 27933.60, 27962.61, 27956.53, 0.00, 0.00, 0.00
120, 51779.69, 51766.50, 51848.69, 51823.64, 27846.92, 27857.16, 27886.04, 27880.09, 0.00, 0.00, 0.00
121, 52181.29, 52168.16, 52250.62, 52225.81, 27657.11, 27667.28, 27696.34, 27689.99, 0.00, 0.00, 0.00
122, 52241.32, 52228.09, 52310.68, 52285.71, 27677.18, 27687.37, 27716.30, 27709.97, 0.00, 0.00, 0.00
123, 51815.81, 51801.95, 51884.88, 51859.00, 27890.19, 27900.27, 27929.51, 27922.85, 0.00, 0.00, 0.00
124, 51803.12, 51789.57, 51871.89, 51846.28, 27879.02, 27889.19, 27918.22, 27911.87, 0.00, 0.00, 0.00
125, 52283.39, 52269.69, 52352.57, 52327.42, 27644.03, 27654.05, 27683.64, 27676.71, 0.00, 0.00, 0.00
126, 52346.38, 52333.84, 52416.67, 52391.82, 27636.77, 27646.89, 27676.40, 27669.69, 0.00, 0.00, 0.00
127, 51785.68, 51774.82, 51857.30, 51832.20, 27883.53, 27893.88, 27922.78, 27916.68, 0.00, 0.39, 0.86
128, 51616.12, 51605.46, 51688.12, 51662.48, 27940.98, 27951.48, 27980.05, 27973.99, 0.00, 0.00, 0.00
129, 51987.03, 51976.34, 52058.86, 52034.14, 27709.93, 27720.50, 27749.55, 27742.85, 0.00, 0.00, 0.00
130, 52058.02, 52048.85, 52131.24, 52106.65, 27639.16, 27649.24, 27678.70, 27671.99, 0.00, 0.00, 0.00
131, 51508.54, 51500.59, 51582.93, 51557.61, 27853.87, 27864.40, 27893.59, 27887.00, 0.00, 0.00, 0.00
132, 51144.54, 51137.39, 51219.51, 51194.03, 27957.94, 27968.56, 27997.26, 27991.29, 0.00, 0.00, 0.00
133, 51432.82, 51426.64, 51508.23, 51483.35, 27761.94, 27772.06, 27801.10, 27794.75, 0.00, 0.00, 0.00
134, 51626.47, 51620.08, 51701.80, 51676.98, 27628.41, 27638.33, 27667.75, 27661.15, 0.00, 0.00, 0.00
135, 51150.20, 51144.66, 51226.53, 51201.07, 27799.62, 27809.79, 27838.94, 27832.59, 0.00, 0.00, 0.00
136, 50687.74, 50683.05, 50764.12, 50738.97, 27937.56, 27947.82, 27976.98, 27970.82, 0.00, 0.00, 0.00
137, 50949.19, 50944.23, 51025.14, 51000.55, 27773.12, 27783.13, 27812.72, 27806.31, 0.00, 0.00, 0.00
138, 51301.07, 51295.93, 51377.14, 51352.80, 27609.12, 27618.73, 27648.26, 27641.80, -0.04, 0.40, 0.90
139, 51038.26, 51032.74, 51113.97, 51089.31, 27728.52, 27738.69, 27767.73, 27761.27, 0.00, 0.00, 0.00
140, 50653.72, 50648.25, 50729.41, 50704.46, 27880.67, 27890.84, 27920.17, 27913.75, 0.00, 0.00, 0.00
141, 50947.25, 50941.50, 51022.53, 50997.80, 27710.44, 27720.30, 27749.64, 27743.36, 0.00, 0.00, 0.00
142, 51560.76, 51554.59, 51635.66, 51611.72, 27405.76, 27415.17, 27444.77, 27437.99, 0.00, 0.00, 0.00
143, 51477.50, 51471.51, 51553.09, 51529.02, 27467.68, 27477.42, 27506.97, 27500.18, 0.00, 0.00, 0.00
144, 51032.61, 51027.78, 51109.18, 51084.60, 27691.31, 27701.48, 27730.96, 27724.34, 0.00, 0.00, 0.00
145, 51093.38, 51089.40, 51170.14, 51146.07, 27625.55, 27635.72, 27665.22, 27658.40, 0.00, 0.00, 0.00
146, 51537.51, 51532.91, 51613.48, 51589.77, 27393.96, 27403.73, 27433.30, 27426.24, 0.00, 0.00, 0.00
147, 51538.36, 51532.41, 51613.60, 51589.61, 27425.57, 27435.20, 27464.84, 27458.07, 0.00, 0.00, 0.00
148, 51101.56, 51095.57, 51176.75, 51152.05, 27656.35, 27666.54, 27695.89, 27689.25, 0.05, 0.49, 0.96
149, 51083.75, 51078.11, 51159.14, 51134.26, 27653.46, 27663.66, 27692.76, 27686.01, 0.00, 0.00, 0.00
150, 51570.68, 51564.42, 51645.40, 51621.22, 27419.35, 27429.10, 27458.92, 27451.67, 0.00, 0.00, 0.00
151, 51625.02, 51618.78, 51699.88, 51675.58, 27410.70, 27420.65, 27450.22, 27443.22, 0.00, 0.00, 0.00
152, 51168.68, 51162.25, 51243.63, 51218.80, 27636.21, 27646.16, 27675.50, 27669.02, 0.00, 0.00, 0.00
153, 51008.04, 51001.96, 51083.14, 51058.38, 27699.44, 27709.50, 27738.71, 27732.12, 0.00, 0.00, 0.00
154, 51435.81, 51429.91, 51510.84, 51486.97, 27478.59, 27488.08, 27517.90, 27510.95, 0.00, 0.00, 0.00
