%OpenBCI Raw EEG Data
%
%Sample Rate = 250.0 Hz
%First Column = SampleIndex
%Other Columns = EEG data in microvolts followed by Accel Data (in G) interleaved with Aux Data
0, 12381.30, 12382.29, 12395.99, 12402.40, -162.65, -163.35, -159.99, -162.09, 0.15, -0.41, 0.24
1, 12864.84, 12865.82, 12880.53, 12886.81, 270.48, 269.45, 273.70, 271.04, 0.00, 0.00, 0.00
2, 13794.13, 13795.97, 13811.43, 13817.76, 1135.71, 1134.22, 1140.30, 1137.21, 0.00, 0.00, 0.00
3, 13481.37, 13482.68, 13497.97, 13504.07, 858.73, 857.66, 862.62, 859.94, 0.00, 0.00, 0.00
4, 12634.08, 12635.24, 12649.32, 12655.29, 61.33, 60.66, 64.31, 61.76, 0.00, 0.00, 0.00
5, 12769.66, 12771.23, 12785.44, 12791.75, 169.40, 168.47, 172.64, 169.94, 0.00, 0.00, 0.00
6, 13630.83, 13632.35, 13648.27, 13654.17, 970.56, 969.24, 974.87, 972.17, 0.00, 0.00, 0.00
7, 13580.79, 13581.99, 13597.59, 13603.61, 912.96, 911.82, 917.00, 914.25, 0.34, -0.81, 0.48
8, 12709.78, 12711.08, 12725.12, 12731.35, 77.90, 77.43, 80.82, 78.37, 0.00, 0.00, 0.00
9, 12648.74, 12650.08, 12664.34, 12670.38, 45.06, 44.50, 47.79, 45.40, 0.00, 0.00, 0.00
10, 13472.78, 13474.50, 13489.57, 13495.83, 832.47, 831.55, 836.31, 833.65, 0.00, 0.00, 0.00
11, 13588.41, 13589.84, 13605.17, 13611.63, 940.20, 939.02, 944.34, 941.32, 0.00, 0.00, 0.00
12, 12736.29, 12737.03, 12751.11, 12757.66, 133.73, 133.13, 136.99, 134.16, 0.00, 0.00, 0.00
13, 12462.24, 12463.47, 12477.06, 12483.16, -130.69, -131.07, -128.01, -130.31, 0.00, 0.00, 0.00
14, 13175.62, 13177.20, 13192.16, 13198.17, 539.30, 538.36, 543.13, 540.51, 0.00, 0.00, 0.00
15, 13511.41, 13512.88, 13528.59, 13534.47, 865.75, 864.83, 870.22, 867.34, 0.00, 0.00, 0.00
16, 12674.53, 12675.76, 12690.05, 12696.19, 84.18, 83.68, 87.31, 84.82, 0.00, 0.00, 0.00
17, 12129.64, 12130.87, 12143.97, 12150.68, -460.20, -460.33, -457.70, -459.80, 0.34, -0.82, 0.46
18, 12820.87, 12822.21, 12836.79, 12843.11, 153.22, 152.73, 156.66, 153.96, 0.00, 0.00, 0.00
19, 13386.93, 13388.29, 13403.98, 13409.84, 709.31, 708.64, 713.29, 710.61, 0.00, 0.00, 0.00
20, 12648.07, 12649.21, 12663.54, 12669.73, 34.62, 33.95, 37.28, 34.69, 0.00, 0.00, 0.00
21, 11947.79, 11948.82, 11961.63, 11968.26, -646.17, -646.35, -644.36, -646.46, 0.00, 0.00, 0.00
22, 12534.57, 12536.18, 12549.95, 12556.27, -120.21, -120.97, -117.32, -120.05, 0.00, 0.00, 0.00
23, 13246.38, 13248.01, 13262.85, 13269.34, 544.38, 543.33, 548.27, 545.56, 0.00, 0.00, 0.00
24, 12713.14, 12714.05, 12728.45, 12734.73, 53.49, 53.00, 56.71, 54.18, 0.00, 0.00, 0.00
25, 11927.92, 11928.72, 11941.89, 11948.62, -702.52, -702.60, -700.57, -702.87, 0.00, 0.00, 0.00
26, 12318.40, 12319.61, 12333.16, 12339.71, -362.57, -363.15, -359.91, -362.59, 0.00, 0.00, 0.00
27, 13143.34, 13144.66, 13159.21, 13165.67, 406.33, 405.48, 410.11, 407.43, 0.35, -0.82, 0.44
28, 12844.41, 12845.52, 12859.41, 12865.87, 152.57, 152.35, 156.04, 153.53, 0.00, 0.00, 0.00
29, 11972.09, 11973.00, 11985.65, 11992.36, -699.88, -700.35, -697.93, -700.28, 0.00, 0.00, 0.00
30, 12161.85, 12162.88, 12176.18, 12182.84, -564.23, -564.94, -562.17, -564.25, 0.00, 0.00, 0.00
31, 13114.35, 13115.82, 13130.62, 13137.06, 336.51, 335.19, 339.75, 337.49, 0.00, 0.00, 0.00
32, 13016.18, 13017.70, 13032.21, 13038.51, 270.77, 269.85, 274.37, 271.66, 0.00, 0.00, 0.00
33, 12144.40, 12145.58, 12158.92, 12165.47, -535.64, -535.91, -532.91, -535.50, 0.00, 0.00, 0.00
34, 12132.28, 12133.33, 12146.70, 12153.27, -583.92, -584.45, -581.68, -583.98, 0.00, 0.00, 0.00
35, 13003.95, 13005.16, 13019.73, 13026.10, 211.94, 211.11, 215.38, 212.88, 0.00, 0.00, 0.00
36, 13201.81, 13202.93, 13217.93, 13223.96, 406.42, 405.55, 410.40, 407.49, 0.00, 0.00, 0.00
37, 12391.83, 12392.88, 12406.58, 12413.06, -357.74, -357.87, -354.66, -357.14, 0.00, 0.00, 0.00
38, 12087.67, 12088.58, 12101.97, 12108.52, -647.28, -647.75, -645.09, -647.22, 0.38, -0.83, 0.42
39, 12926.66, 12927.87, 12942.53, 12948.97, 135.12, 133.91, 138.16, 135.88, 0.00, 0.00, 0.00
40, 13361.92, 13363.06, 13378.52, 13384.96, 542.66, 541.54, 546.61, 543.88, 0.00, 0.00, 0.00
41, 12578.11, 12579.14, 12593.33, 12599.83, -168.35, -169.00, -165.43, -168.11, 0.00, 0.00, 0.00
42, 12081.88, 12082.77, 12096.32, 12102.96, -643.04, -643.44, -640.67, -643.53, 0.00, 0.00, 0.00
43, 12842.06, 12843.16, 12857.71, 12864.28, 36.90, 36.30, 40.37, 37.46, 0.00, 0.00, 0.00
44, 13427.45, 13428.57, 13443.93, 13450.41, 583.05, 582.17, 586.73, 584.23, 0.00, 0.00, 0.00
45, 12805.90, 12807.35, 12821.54, 12827.80, 30.06, 29.50, 32.75, 30.35, 0.00, 0.00, 0.00
46, 12191.29, 12192.36, 12205.53, 12212.10, -560.40, -560.74, -558.28, -560.67, 0.00, 0.00, 0.00
47, 12731.93, 12733.12, 12747.18, 12753.73, -78.83, -79.42, -75.75, -78.54, 0.00, 0.00, 0.00
48, 13461.81, 13463.06, 13478.53, 13484.47, 628.29, 627.28, 632.08, 629.40, 0.40, -0.82, 0.40
49, 13011.02, 13012.04, 13026.55, 13032.52, 249.33, 249.02, 252.75, 250.23, 0.00, 0.00, 0.00
50, 12229.18, 12230.23, 12243.35, 12249.72, -474.15, -474.55, -471.78, -474.08, 0.00, 0.00, 0.00
51, 12624.11, 12625.36, 12639.53, 12645.92, -142.85, -143.88, -140.17, -142.65, 0.00, 0.00, 0.00
52, 13479.35, 13480.74, 13495.96, 13502.33, 634.59, 633.69, 638.66, 635.71, 0.00, 0.00, 0.00
53, 13173.40, 13174.61, 13189.34, 13195.73, 354.30, 353.47, 357.92, 355.15, 0.00, 0.00, 0.00
54, 12317.02, 12318.16, 12332.02, 12338.48, -439.75, -440.33, -437.47, -440.06, 0.00, 0.00, 0.00
55, 12497.35, 12498.71, 12512.80, 12519.17, -282.86, -283.49, -279.98, -282.39, 0.00, 0.00, 0.00
56, 13338.07, 13339.95, 13354.99, 13361.38, 515.23, 514.40, 519.48, 516.50, 0.00, 0.00, 0.00
57, 13301.81, 13303.29, 13318.46, 13324.72, 512.21, 510.80, 515.88, 513.49, 0.00, 0.00, 0.00
58, 12468.65, 12469.88, 12483.52, 12490.15, -259.55, -260.15, -256.69, -258.92, 0.41, -0.82, 0.39
59, 12367.31, 12368.74, 12382.22, 12389.12, -372.76, -373.54, -370.01, -372.69, 0.00, 0.00, 0.00
60, 13218.89, 13220.27, 13235.32, 13242.02, 432.91, 431.90, 436.86, 433.85, 0.00, 0.00, 0.00
61, 13454.92, 13456.24, 13471.64, 13477.86, 676.79, 675.85, 680.59, 678.06, 0.00, 0.00, 0.00
62, 12567.13, 12568.12, 12581.98, 12588.17, -139.79, -140.39, -137.20, -139.41, 0.00, 0.00, 0.00
63, 12244.80, 12246.07, 12259.57, 12265.83, -454.39, -455.04, -452.33, -454.84, 0.00, 0.00, 0.00
64, 13029.70, 13030.93, 13045.91, 13052.12, 277.07, 276.29, 280.11, 277.63, 0.00, 0.00, 0.00
65, 13452.46, 13453.42, 13468.69, 13475.06, 689.91, 688.79, 693.44, 691.05, 0.00, 0.00, 0.00
66, 12677.04, 12677.53, 12691.79, 12698.50, -16.90, -17.77, -14.28, -16.50, 0.00, 0.00, 0.00
67, 12170.05, 12170.77, 12184.45, 12190.98, -485.35, -485.79, -483.29, -485.52, 0.00, 0.00, 0.00
68, 12848.23, 12849.15, 12863.99, 12870.11, 120.05, 119.56, 123.18, 120.86, 0.43, -0.82, 0.39
69, 13461.76, 13462.97, 13478.39, 13484.61, 691.32, 690.36, 695.45, 692.43, 0.00, 0.00, 0.00
70, 12857.19, 12858.51, 12872.66, 12879.05, 133.64, 132.86, 136.79, 134.33, 0.00, 0.00, 0.00
71, 12153.72, 12155.21, 12168.36, 12174.70, -491.20, -491.65, -489.06, -491.20, 0.00, 0.00, 0.00
72, 12708.40, 12709.65, 12724.27, 12730.46, 40.41, 39.41, 43.16, 40.77, 0.00, 0.00, 0.00
73, 13504.21, 13505.55, 13521.20, 13527.36, 783.18, 782.09, 787.25, 784.75, 0.00, 0.00, 0.00
74, 13009.74, 13010.64, 13025.50, 13031.94, 351.35, 350.54, 354.61, 352.17, 0.00, 0.00, 0.00
75, 12211.65, 12212.39, 12226.20, 12232.75, -384.52, -384.92, -382.19, -384.20, 0.00, 0.00, 0.00
76, 12590.92, 12592.28, 12606.47, 12612.84, -35.67, -36.68, -32.83, -35.45, 0.00, 0.00, 0.00
77, 13396.43, 13397.59, 13413.08, 13419.23, 721.49, 720.49, 725.49, 722.54, 0.00, 0.00, 0.00
78, 13149.89, 13150.83, 13165.83, 13172.13, 499.94, 499.29, 503.72, 500.88, 0.44, -0.82, 0.40
79, 12288.25, 12289.28, 12302.47, 12309.24, -308.48, -308.66, -305.73, -308.34, 0.00, 0.00, 0.00
80, 12375.33, 12376.63, 12389.88, 12397.01, -223.83, -224.34, -220.92, -223.36, 0.00, 0.00, 0.00
81, 13240.21, 13241.55, 13256.28, 13262.85, 580.32, 579.65, 584.43, 581.73, 0.00, 0.00, 0.00
82, 13233.33, 13234.83, 13249.69, 13255.79, 592.05, 591.56, 595.96, 593.13, 0.00, 0.00, 0.00
83, 12337.36, 12338.07, 12351.89, 12358.35, -235.63, -236.08, -233.17, -235.50, 0.00, 0.00, 0.00
84, 12179.06, 12179.93, 12193.52, 12200.01, -377.25, -377.90, -375.04, -377.45, 0.00, 0.00, 0.00
85, 13053.73, 13055.05, 13069.76, 13076.28, 441.67, 440.75, 445.22, 442.52, 0.00, 0.00, 0.00
86, 13280.98, 13282.34, 13297.48, 13303.89, 663.71, 663.20, 667.71, 665.01, 0.00, 0.00, 0.00
87, 12419.50, 12420.48, 12434.19, 12440.82, -135.54, -135.59, -132.32, -135.03, 0.00, 0.00, 0.00
88, 12070.84, 12071.82, 12084.94, 12091.44, -479.49, -479.80, -477.01, -479.49, 0.00, 0.00, 0.00
89, 12857.53, 12858.49, 12872.95, 12879.59, 251.86, 251.32, 255.48, 252.64, 0.42, -0.85, 0.40
90, 13327.65, 13328.81, 13344.08, 13350.54, 698.58, 697.78, 702.72, 699.88, 0.00, 0.00, 0.00
91, 12598.36, 12599.52, 12613.60, 12619.93, 28.83, 28.12, 31.63, 29.12, 0.00, 0.00, 0.00
92, 11997.81, 11998.73, 12011.69, 12017.95, -529.92, -530.38, -527.68, -529.92, 0.00, 0.00, 0.00
93, 12679.67, 12680.66, 12694.92, 12701.13, 99.29, 98.30, 102.64, 100.02, 0.00, 0.00, 0.00
94, 13373.14, 13374.12, 13389.25, 13395.60, 751.18, 750.48, 755.58, 752.56, 0.00, 0.00, 0.00
95, 12733.52, 12734.88, 12748.61, 12755.22, 166.41, 166.05, 169.94, 167.44, 0.00, 0.00, 0.00
96, 12007.36, 12008.52, 12021.50, 12028.10, -530.50, -530.99, -528.15, -530.45, 0.00, 0.00, 0.00
97, 12576.86, 12577.95, 12592.19, 12598.61, -22.26, -23.00, -19.40, -22.17, 0.00, 0.00, 0.00
98, 13364.98, 13366.19, 13381.72, 13387.93, 714.97, 713.67, 718.90, 715.95, 0.00, 0.00, 0.00
99, 12925.70, 12926.95, 12941.75, 12947.78, 330.65, 329.71, 333.91, 331.03, 0.39, -0.86, 0.41
100, 12102.55, 12103.76, 12117.06, 12123.38, -420.35, -420.93, -418.07, -420.79, 0.00, 0.00, 0.00
101, 12425.58, 12427.03, 12440.67, 12446.86, -158.05, -158.79, -155.43, -158.07, 0.00, 0.00, 0.00
102, 13335.39, 13337.11, 13352.10, 13358.27, 670.95, 670.33, 674.98, 672.14, 0.00, 0.00, 0.00
103, 13167.10, 13168.46, 13183.57, 13189.47, 541.05, 540.13, 544.53, 542.01, 0.00, 0.00, 0.00
104, 12256.31, 12257.34, 12271.13, 12277.34, -306.93, -307.69, -304.70, -306.87, 0.00, 0.00, 0.00
105, 12339.73, 12340.93, 12354.84, 12361.16, -241.67, -242.38, -238.96, -241.40, 0.00, 0.00, 0.00
106, 13268.64, 13269.98, 13285.12, 13291.44, 650.30, 649.18, 654.32, 651.17, 0.00, 0.00, 0.00
107, 13309.26, 13310.22, 13325.35, 13331.81, 709.80, 708.64, 713.36, 710.54, 0.00, 0.00, 0.00
108, 12422.72, 12423.37, 12437.54, 12444.00, -129.73, -130.67, -127.32, -129.57, 0.00, 0.00, 0.00
109, 12274.97, 12275.69, 12289.73, 12296.36, -292.65, -293.19, -289.95, -292.45, 0.38, -0.84, 0.41
110, 13149.04, 13150.29, 13165.15, 13171.75, 505.40, 504.39, 509.13, 506.49, 0.00, 0.00, 0.00
111, 13453.87, 13455.37, 13470.55, 13477.30, 792.88, 791.74, 796.88, 794.18, 0.00, 0.00, 0.00
112, 12628.53, 12629.83, 12643.84, 12650.66, 27.89, 27.22, 30.80, 28.07, 0.00, 0.00, 0.00
113, 12206.64, 12207.79, 12221.33, 12227.81, -382.37, -382.75, -379.78, -382.39, 0.00, 0.00, 0.00
114, 13030.93, 13032.23, 13047.03, 13053.26, 380.45, 379.64, 384.25, 381.68, 0.00, 0.00, 0.00
115, 13574.44, 13575.76, 13591.16, 13597.48, 898.67, 898.00, 903.30, 900.46, 0.00, 0.00, 0.00
116, 12779.92, 12780.95, 12795.64, 12801.87, 154.81, 154.25, 157.98, 155.43, 0.00, 0.00, 0.00
117, 12153.20, 12154.72, 12168.22, 12174.35, -457.36, -457.85, -455.42, -457.74, 0.00, 0.00, 0.00
118, 12874.40, 12875.68, 12890.12, 12896.75, 205.93, 204.76, 208.92, 206.53, 0.00, 0.00, 0.00
119, 13550.50, 13551.64, 13567.04, 13573.66, 855.27, 854.13, 859.34, 856.43, 0.37, -0.84, 0.41
120, 12912.38, 12913.72, 12928.11, 12934.64, 295.36, 294.53, 298.62, 296.03, 0.00, 0.00, 0.00
121, 12201.01, 12202.35, 12215.92, 12222.49, -385.79, -386.57, -383.58, -386.04, 0.00, 0.00, 0.00
122, 12675.72, 12677.19, 12691.57, 12697.98, 34.67, 33.97, 37.48, 34.85, 0.00, 0.00, 0.00
123, 13493.52, 13494.78, 13510.53, 13516.68, 803.90, 802.74, 807.99, 804.91, 0.00, 0.00, 0.00
124, 13087.10, 13087.86, 13102.86, 13109.41, 429.65, 428.89, 433.18, 430.54, 0.00, 0.00, 0.00
125, 12217.11, 12218.33, 12231.57, 12238.32, -379.62, -379.85, -377.16, -379.47, 0.00, 0.00, 0.00
126, 12507.61, 12509.13, 12522.81, 12529.43, -97.79, -98.33, -94.70, -97.59, 0.00, 0.00, 0.00
127, 13441.47, 13443.25, 13458.34, 13465.07, 771.43, 770.58, 775.90, 772.68, 0.00, 0.00, 0.00
128, 13265.45, 13267.08, 13282.05, 13288.63, 617.36, 616.51, 621.07, 618.23, 0.00, 0.00, 0.00
129, 12376.12, 12377.01, 12391.00, 12397.37, -207.89, -208.09, -205.48, -207.78, 0.00, 0.00, 0.00
130, 12464.09, 12465.30, 12479.34, 12485.48, -142.40, -142.85, -139.77, -141.96, 0.38, -0.82, 0.40
131, 13397.99, 13399.27, 13414.62, 13421.08, 732.78, 731.89, 736.83, 734.12, 0.00, 0.00, 0.00
132, 13507.02, 13508.14, 13523.54, 13530.02, 853.59, 852.47, 857.48, 854.86, 0.00, 0.00, 0.00
133, 12633.79, 12634.93, 12648.94, 12655.56, 51.45, 50.92, 54.49, 51.83, 0.00, 0.00, 0.00
134, 12435.37, 12436.44, 12450.39, 12457.01, -128.66, -129.15, -125.86, -128.37, 0.00, 0.00, 0.00
135, 13344.37, 13345.60, 13360.93, 13367.19, 711.93, 710.92, 715.57, 713.07, 0.00, 0.00, 0.00
136, 13733.92, 13735.37, 13751.17, 13756.89, 1100.11, 1099.42, 1104.40, 1101.92, 0.00, 0.00, 0.00
137, 12891.97, 12893.29, 12907.55, 12913.74, 362.50, 362.23, 365.81, 363.24, 0.00, 0.00, 0.00
138, 12447.60, 12448.65, 12462.42, 12469.08, -64.93, -65.40, -62.20, -64.62, 0.00, 0.00, 0.00
139, 13274.90, 13276.04, 13291.40, 13297.99, 683.81, 683.07, 687.74, 685.06, 0.00, 0.00, 0.00
140, 13847.62, 13848.58, 13864.92, 13871.25, 1226.31, 1225.75, 1231.02, 1228.36, 0.39, -0.80, 0.40
141, 13134.64, 13135.38, 13150.58, 13156.79, 579.02, 578.84, 582.73, 580.18, 0.00, 0.00, 0.00
142, 12524.26, 12525.76, 12539.33, 12545.56, 0.07, -0.25, 3.04, 0.69, 0.00, 0.00, 0.00
143, 13188.58, 13190.08, 13205.01, 13211.09, 615.75, 614.96, 619.68, 616.98, 0.00, 0.00, 0.00
144, 13921.63, 13923.42, 13939.13, 13945.43, 1290.72, 1289.96, 1295.86, 1292.94, 0.00, 0.00, 0.00
145, 13361.65, 13362.90, 13378.12, 13384.40, 777.01, 776.63, 781.19, 778.62, 0.00, 0.00, 0.00
146, 12555.40, 12556.65, 12570.87, 12577.21, 43.68, 43.47, 46.45, 44.12, 0.00, 0.00, 0.00
147, 13011.60, 13013.01, 13027.74, 13034.15, 453.09, 452.53, 456.80, 453.92, 0.00, 0.00, 0.00
148, 13929.14, 13930.75, 13946.93, 13953.10, 1319.33, 1318.60, 1324.09, 1321.57, 0.00, 0.00, 0.00
149, 13539.23, 13540.87, 13556.18, 13562.66, 973.55, 972.64, 977.75, 975.09, 0.00, 0.00, 0.00
150, 12611.73, 12612.75, 12626.63, 12633.25, 99.69, 99.53, 102.62, 100.38, 0.39, -0.81, 0.41
151, 12939.85, 12941.19, 12955.72, 12962.04, 381.43, 380.67, 384.70, 382.10, 0.00, 0.00, 0.00
152, 13760.27, 13761.92, 13777.75, 13783.56, 1158.00, 1157.04, 1162.65, 1159.68, 0.00, 0.00, 0.00
153, 13610.47, 13611.79, 13627.25, 13633.42, 1034.95, 1034.28, 1039.31, 1036.41, 0.00, 0.00, 0.00
154, 12733.05, 12734.08, 12748.23, 12755.00, 228.57, 228.01, 231.59, 229.06, 0.00, 0.00, 0.00
155, 12678.67, 12679.70, 12694.02, 12700.42, 154.99, 154.56, 158.36, 155.43, 0.00, 0.00, 0.00
156, 13594.67, 13595.85, 13611.76, 13617.67, 989.51, 989.04, 994.25, 991.21, 0.00, 0.00, 0.00
157, 13752.92, 13753.85, 13769.84, 13775.78, 1151.20, 1150.85, 1155.52, 1152.97, 0.00, 0.00, 0.00
158, 12787.61, 12788.57, 12802.99, 12809.34, 262.92, 262.54, 266.23, 263.75, 0.00, 0.00, 0.00
159, 12530.83, 12532.13, 12546.06, 12552.27, -3.42, -3.89, -0.49, -2.95, 0.00, 0.00, 0.00
160, 13467.35, 13468.58, 13484.05, 13490.08, 850.73, 849.55, 854.60, 851.80, 0.39, -0.81, 0.43
161, 13783.65, 13784.68, 13800.26, 13806.69, 1164.75, 1163.72, 1169.04, 1166.16, 0.00, 0.00, 0.00
162, 12923.51, 12924.54, 12939.25, 12945.50, 358.30, 357.52, 361.36, 358.72, 0.00, 0.00, 0.00
163, 12497.51, 12498.83, 12512.71, 12519.05, -59.17, -59.52, -56.15, -58.70, 0.00, 0.00, 0.00
164, 13222.42, 13223.76, 13238.85, 13244.91, 617.74, 617.40, 621.62, 618.88, 0.00, 0.00, 0.00
165, 13808.04, 13809.26, 13825.18, 13831.21, 1194.50, 1193.69, 1198.63, 1196.24, 0.00, 0.00, 0.00
166, 13108.20, 13109.16, 13124.18, 13130.33, 547.73, 547.24, 550.75, 548.69, 0.00, 0.00, 0.00
167, 12378.71, 12379.69, 12393.13, 12399.94, -157.78, -158.14, -155.70, -157.62, 0.00, 0.00, 0.00
168, 13013.10, 13014.82, 13029.21, 13035.60, 400.34, 399.78, 403.87, 401.46, 0.00, 0.00, 0.00
169, 13813.74, 13815.63, 13831.21, 13837.32, 1152.77, 1152.19, 1157.66, 1154.76, 0.00, 0.00, 0.00
170, 13197.72, 13199.22, 13214.15, 13220.48, 583.69, 583.18, 587.38, 585.03, 0.39, -0.81, 0.43
171, 12395.50, 12396.92, 12410.31, 12417.09, -189.63, -189.70, -186.88, -189.21, 0.00, 0.00, 0.00
172, 12882.18, 12883.72, 12898.16, 12904.78, 262.81, 262.50, 266.32, 263.59, 0.00, 0.00, 0.00
173, 13674.73, 13675.83, 13691.87, 13698.31, 1014.21, 1013.29, 1018.77, 1015.62, 0.00, 0.00, 0.00
174, 13347.95, 13349.00, 13364.62, 13370.86, 714.56, 714.14, 718.34, 715.52, 0.00, 0.00, 0.00
175, 12523.77, 12525.00, 12538.97, 12545.18, -49.08, -49.35, -46.54, -48.73, 0.00, 0.00, 0.00
176, 12655.07, 12656.70, 12670.62, 12676.81, 49.55, 48.86, 52.26, 49.73, 0.00, 0.00, 0.00
177, 13548.13, 13549.60, 13564.92, 13571.33, 858.58, 857.73, 862.96, 860.01, 0.00, 0.00, 0.00
178, 13528.13, 13529.35, 13544.69, 13550.88, 845.28, 844.85, 849.68, 846.77, 0.00, 0.00, 0.00
179, 12587.32, 12588.57, 12602.67, 12609.09, -18.15, -18.69, -15.51, -17.99, 0.00, 0.00, 0.00
180, 12521.16, 12522.43, 12536.40, 12543.20, -88.67, -89.21, -86.23, -88.62, 0.00, 0.00, 0.00
181, 13491.09, 13492.25, 13507.74, 13514.24, 795.90, 794.90, 800.08, 797.04, 0.39, -0.82, 0.43
182, 13601.91, 13602.96, 13618.65, 13624.71, 912.85, 911.86, 916.94, 914.05, 0.00, 0.00, 0.00
183, 12701.00, 12702.16, 12716.58, 12722.86, 93.14, 92.83, 96.11, 93.72, 0.00, 0.00, 0.00
184, 12432.73, 12434.41, 12448.11, 12454.68, -165.27, -165.40, -162.34, -164.87, 0.00, 0.00, 0.00
185, 13222.13, 13223.96, 13238.42, 13245.06, 551.55, 551.26, 555.42, 552.62, 0.00, 0.00, 0.00
186, 13681.28, 13682.91, 13698.04, 13704.61, 982.60, 981.89, 986.81, 984.26, 0.00, 0.00, 0.00
187, 12915.93, 12917.05, 12931.69, 12938.08, 296.32, 295.67, 299.49, 297.08, 0.00, 0.00, 0.00
188, 12344.51, 12345.90, 12359.26, 12365.92, -221.01, -221.71, -218.80, -220.97, 0.00, 0.00, 0.00
189, 13067.54, 13069.09, 13083.77, 13090.28, 445.51, 445.09, 448.96, 446.70, 0.00, 0.00, 0.00
190, 13740.73, 13741.99, 13757.92, 13764.00, 1085.98, 1085.29, 1090.59, 1087.64, 0.00, 0.00, 0.00
191, 13050.31, 13051.47, 13066.36, 13072.55, 453.67, 453.29, 457.09, 454.37, 0.39, -0.82, 0.43
192, 12350.32, 12351.33, 12365.10, 12371.71, -205.99, -205.88, -203.38, -205.88, 0.00, 0.00, 0.00
193, 13005.72, 13006.90, 13021.99, 13027.85, 382.75, 381.75, 385.77, 383.11, 0.00, 0.00, 0.00
194, 13790.76, 13792.17, 13808.59, 13814.07, 1111.95, 1110.84, 1116.38, 1113.36, 0.00, 0.00, 0.00
195, 13287.44, 13288.54, 13303.76, 13309.75, 650.41, 649.68, 653.99, 651.40, 0.00, 0.00, 0.00
196, 12483.02, 12483.92, 12498.02, 12504.37, -93.94, -94.21, -91.28, -93.77, 0.00, 0.00, 0.00
197, 12808.89, 12809.81, 12824.33, 12830.86, 193.81, 193.21, 197.01, 194.42, 0.00, 0.00, 0.00
198, 13691.05, 13692.70, 13708.26, 13714.52, 1025.63, 1024.89, 1030.17, 1027.15, 0.00, 0.00, 0.00
199, 13458.61, 13460.02, 13475.17, 13481.52, 830.28, 830.08, 834.70, 832.00, 0.00, 0.00, 0.00
200, 12571.85, 12572.86, 12586.92, 12593.46, -6.03, -6.06, -2.91, -5.16, 0.00, 0.00, 0.00
201, 12702.09, 12703.41, 12717.61, 12723.98, 89.70, 89.21, 92.63, 90.26, 0.40, -0.83, 0.42
202, 13622.94, 13624.26, 13640.06, 13646.14, 942.13, 941.52, 946.10, 943.65, 0.00, 0.00, 0.00
203, 13619.54, 13621.06, 13636.60, 13642.83, 966.02, 965.35, 970.18, 967.36, 0.00, 0.00, 0.00
204, 12733.27, 12734.41, 12748.50, 12754.87, 156.04, 155.86, 159.17, 156.55, 0.00, 0.00, 0.00
205, 12607.59, 12608.86, 12622.81, 12629.27, 35.99, 35.29, 38.67, 36.01, 0.00, 0.00, 0.00
206, 13471.35, 13472.51, 13488.18, 13494.22, 836.49, 835.49, 840.07, 837.50, 0.00, 0.00, 0.00
207, 13745.27, 13746.57, 13762.50, 13768.58, 1105.99, 1105.27, 1110.28, 1107.62, 0.00, 0.00, 0.00
208, 12908.65, 12909.94, 12924.47, 12930.89, 338.87, 338.54, 341.85, 339.59, 0.00, 0.00, 0.00
209, 12524.60, 12525.72, 12539.69, 12546.15, -20.21, -20.74, -17.59, -19.80, 0.00, 0.00, 0.00
210, 13325.98, 13327.29, 13342.61, 13348.80, 725.34, 724.17, 728.73, 726.19, 0.00, 0.00, 0.00
211, 13888.75, 13890.13, 13906.23, 13912.13, 1262.83, 1261.71, 1266.96, 1264.57, 0.40, -0.83, 0.42
212, 13089.09, 13090.43, 13105.25, 13111.56, 537.98, 537.45, 541.20, 539.10, 0.00, 0.00, 0.00
213, 12490.22, 12491.52, 12505.46, 12511.90, -26.84, -26.87, -24.30, -26.31, 0.00, 0.00, 0.00
214, 13178.68, 13179.93, 13195.11, 13201.16, 598.07, 597.26, 601.51, 598.85, 0.00, 0.00, 0.00
215, 13824.42, 13825.51, 13841.59, 13847.75, 1198.77, 1197.45, 1203.22, 1200.47, 0.00, 0.00, 0.00
216, 13209.97, 13210.91, 13225.88, 13232.08, 639.04, 638.23, 642.57, 640.00, 0.00, 0.00, 0.00
217, 12513.09, 12513.76, 12527.73, 12534.37, -26.58, -27.18, -24.01, -26.53, 0.00, 0.00, 0.00
218, 13026.82, 13028.03, 13042.80, 13049.08, 414.47, 413.95, 418.18, 415.25, 0.00, 0.00, 0.00
219, 13817.24, 13818.56, 13834.52, 13840.54, 1145.37, 1144.43, 1150.02, 1147.23, 0.00, 0.00, 0.00
220, 13390.95, 13392.23, 13407.56, 13413.86, 773.97, 773.44, 777.75, 775.25, 0.00, 0.00, 0.00
221, 12551.98, 12553.14, 12567.22, 12573.48, -9.90, -10.33, -7.67, -9.52, 0.40, -0.81, 0.41
222, 12884.82, 12886.07, 12900.49, 12906.86, 279.06, 278.48, 281.61, 279.42, 0.00, 0.00, 0.00
223, 13772.72, 13774.28, 13790.04, 13796.28, 1109.12, 1108.29, 1113.21, 1110.21, 0.00, 0.00, 0.00
224, 13556.69, 13558.03, 13573.63, 13579.56, 925.34, 924.76, 929.41, 926.52, 0.00, 0.00, 0.00
225, 12673.51, 12674.51, 12688.59, 12695.16, 107.80, 107.60, 110.64, 108.29, 0.00, 0.00, 0.00
226, 12767.34, 12768.68, 12782.94, 12789.47, 178.52, 178.03, 181.70, 179.08, 0.00, 0.00, 0.00
227, 13648.27, 13649.81, 13665.88, 13671.87, 992.66, 992.04, 997.31, 994.18, 0.00, 0.00, 0.00
228, 13688.41, 13689.50, 13705.49, 13711.59, 1053.17, 1052.72, 1057.64, 1054.89, 0.00, 0.00, 0.00
229, 12807.66, 12808.53, 12822.77, 12829.43, 235.52, 235.10, 238.29, 235.90, 0.00, 0.00, 0.00
230, 12652.27, 12653.43, 12667.58, 12674.18, 67.39, 67.01, 70.50, 68.04, 0.00, 0.00, 0.00
231, 13523.45, 13524.95, 13540.82, 13546.68, 862.75, 862.04, 867.31, 864.34, 0.00, 0.00, 0.00
232, 13806.05, 13807.41, 13823.53, 13829.09, 1141.12, 1140.34, 1145.55, 1142.58, 0.40, -0.80, 0.41
233, 12975.54, 12976.84, 12991.39, 12997.54, 373.30, 373.03, 376.69, 374.06, 0.00, 0.00, 0.00
234, 12562.93, 12564.12, 12578.18, 12584.55, -1.92, -2.03, 0.67, -1.32, 0.00, 0.00, 0.00
235, 13345.58, 13347.21, 13362.36, 13368.71, 714.38, 713.80, 718.09, 715.59, 0.00, 0.00, 0.00
236, 13837.29, 13838.61, 13854.86, 13860.96, 1180.02, 1179.19, 1184.73, 1181.67, 0.00, 0.00, 0.00
237, 13094.86, 13095.86, 13111.00, 13117.19, 478.51, 478.13, 482.04, 479.40, 0.00, 0.00, 0.00
238, 12528.40, 12529.47, 12543.37, 12549.48, -57.51, -57.94, -54.96, -57.38, 0.00, 0.00, 0.00
239, 13203.60, 13204.87, 13219.92, 13226.15, 549.99, 549.05, 553.25, 550.95, 0.00, 0.00, 0.00
240, 13835.15, 13836.29, 13852.40, 13858.48, 1150.85, 1149.89, 1155.09, 1152.50, 0.00, 0.00, 0.00
241, 13304.74, 13305.68, 13320.99, 13327.29, 687.52, 687.07, 691.29, 688.75, 0.00, 0.00, 0.00
242, 12569.97, 12570.82, 12585.13, 12591.27, 4.11, 4.00, 6.93, 4.34, 0.41, -0.81, 0.42
243, 12991.93, 12993.05, 13007.69, 13013.99, 373.05, 372.27, 375.93, 373.25, 0.00, 0.00, 0.00
244, 13766.64, 13768.07, 13783.76, 13790.22, 1083.08, 1082.41, 1087.39, 1084.44, 0.00, 0.00, 0.00
245, 13380.96, 13382.41, 13397.77, 13403.96, 743.06, 742.41, 746.64, 744.20, 0.00, 0.00, 0.00
246, 12557.95, 12558.84, 12573.21, 12579.25, -26.44, -26.73, -23.85, -26.35, 0.00, 0.00, 0.00
247, 12819.44, 12820.98, 12835.44, 12841.77, 185.77, 185.07, 188.72, 186.03, 0.00, 0.00, 0.00
248, 13652.62, 13654.43, 13670.19, 13676.23, 965.57, 964.84, 970.11, 966.76, 0.00, 0.00, 0.00
249, 13493.77, 13495.18, 13510.65, 13516.79, 839.26, 838.32, 842.91, 839.87, 0.00, 0.00, 0.00
250, 12630.93, 12632.27, 12646.35, 12652.41, 43.83, 43.41, 46.38, 44.01, 0.00, 0.00, 0.00
251, 12656.81, 12658.11, 12672.17, 12678.76, 50.54, 50.02, 53.51, 50.87, 0.00, 0.00, 0.00
252, 13532.15, 13533.56, 13549.20, 13555.08, 876.99, 876.19, 880.93, 878.29, 0.42, -0.81, 0.42
253, 13643.35, 13644.76, 13659.91, 13666.46, 991.84, 991.03, 995.48, 992.84, 0.00, 0.00, 0.00
254, 12781.00, 12782.22, 12795.95, 12802.65, 183.44, 182.97, 186.15, 184.04, 0.00, 0.00, 0.00
255, 12577.86, 12579.00, 12592.66, 12599.25, -26.06, -26.76, -23.58, -25.68, 0.00, 0.00, 0.00
0, 13405.01, 13406.53, 13421.55, 13427.94, 755.49, 754.39, 759.13, 756.34, 0.00, 0.00, 0.00
1, 13739.04, 13740.56, 13756.29, 13762.39, 1103.86, 1103.04, 1108.22, 1105.20, 0.00, 0.00, 0.00
2, 12959.90, 12961.22, 12975.59, 12981.96, 400.57, 400.34, 404.23, 401.62, 0.00, 0.00, 0.00
3, 12567.89, 12569.17, 12583.07, 12589.64, 15.24, 14.62, 17.81, 15.40, 0.00, 0.00, 0.00
4, 13324.79, 13326.00, 13341.31, 13347.66, 701.58, 700.95, 705.51, 702.76, 0.00, 0.00, 0.00
5, 13887.05, 13888.50, 13904.39, 13910.81, 1235.09, 1234.69, 1239.90, 1237.06, 0.00, 0.00, 0.00
6, 13212.25, 13213.41, 13228.37, 13234.38, 612.39, 612.01, 616.08, 613.58, 0.41, -0.81, 0.43
7, 12610.27, 12611.05, 12625.38, 12631.35, 30.15, 30.22, 33.26, 30.85, 0.00, 0.00, 0.00
8, 13244.24, 13245.44, 13260.71, 13266.56, 624.33, 623.90, 628.29, 625.60, 0.00, 0.00, 0.00
9, 13964.88, 13966.00, 13982.51, 13988.26, 1305.36, 1304.51, 1310.01, 1307.15, 0.00, 0.00, 0.00
10, 13439.32, 13440.64, 13455.71, 13461.87, 830.72, 830.37, 834.35, 832.07, 0.00, 0.00, 0.00
11, 12708.06, 12709.34, 12723.26, 12729.79, 146.47, 146.31, 149.00, 147.03, 0.00, 0.00, 0.00
12, 13162.03, 13163.23, 13177.96, 13184.42, 545.81, 545.09, 549.43, 547.01, 0.00, 0.00, 0.00
13, 13969.19, 13970.60, 13986.47, 13993.15, 1313.30, 1312.47, 1318.26, 1315.51, 0.00, 0.00, 0.00
14, 13645.90, 13646.77, 13662.48, 13668.63, 1023.20, 1023.06, 1027.35, 1024.74, 0.00, 0.00, 0.00
15, 12868.52, 12869.26, 12884.04, 12889.78, 298.02, 298.02, 301.23, 298.80, 0.00, 0.00, 0.00
16, 13103.71, 13105.10, 13119.65, 13125.77, 494.71, 494.02, 498.51, 495.74, 0.00, 0.00, 0.00
17, 13936.45, 13937.79, 13953.72, 13959.63, 1286.41, 1285.38, 1291.24, 1288.35, 0.40, -0.82, 0.43
18, 13825.76, 13826.88, 13842.97, 13849.01, 1214.88, 1214.44, 1219.51, 1216.69, 0.00, 0.00, 0.00
19, 12952.19, 12953.15, 12967.65, 12974.27, 392.70, 392.72, 396.05, 393.84, 0.00, 0.00, 0.00
20, 12966.27, 12967.21, 12981.76, 12988.31, 394.75, 394.20, 397.93, 395.60, 0.00, 0.00, 0.00
21, 13826.74, 13827.73, 13843.80, 13849.72, 1200.31, 1199.17, 1204.74, 1202.03, 0.00, 0.00, 0.00
22, 13947.02, 13947.98, 13964.34, 13970.04, 1320.72, 1320.07, 1325.50, 1322.49, 0.00, 0.00, 0.00
23, 13096.00, 13097.34, 13111.98, 13117.99, 521.35, 521.06, 524.77, 522.02, 0.00, 0.00, 0.00
24, 12853.12, 12854.31, 12868.77, 12874.94, 277.50, 277.05, 280.80, 278.35, 0.00, 0.00, 0.00
25, 13643.08, 13644.47, 13660.22, 13666.39, 1007.57, 1006.52, 1011.89, 1009.29, 0.00, 0.00, 0.00
26, 13981.60, 13983.05, 13999.01, 14005.04, 1351.50, 1350.36, 1356.33, 1353.15, 0.00, 0.00, 0.00
27, 13208.88, 13210.13, 13224.70, 13231.07, 644.40, 644.09, 648.22, 645.43, 0.40, -0.81, 0.42
28, 12781.82, 12782.87, 12797.13, 12803.37, 218.13, 217.95, 221.28, 218.85, 0.00, 0.00, 0.00
29, 13507.99, 13509.33, 13524.73, 13530.78, 872.57, 871.94, 876.79, 873.91, 0.00, 0.00, 0.00
30, 14067.81, 14069.37, 14085.49, 14091.57, 1407.33, 1406.73, 1412.41, 1409.57, 0.00, 0.00, 0.00
31, 13342.02, 13343.16, 13358.32, 13364.42, 751.96, 751.62, 755.65, 753.16, 0.00, 0.00, 0.00
32, 12687.99, 12689.46, 12703.46, 12709.69, 137.78, 137.49, 140.44, 138.04, 0.00, 0.00, 0.00
33, 13291.00, 13292.72, 13307.94, 13313.84, 678.06, 677.21, 681.64, 679.02, 0.00, 0.00, 0.00
34, 13998.50, 14000.08, 14016.29, 14022.43, 1334.53, 1333.71, 1339.05, 1336.43, 0.00, 0.00, 0.00
35, 13464.11, 13465.43, 13480.98, 13487.29, 856.41, 856.45, 860.61, 857.93, 0.00, 0.00, 0.00
36, 12683.88, 12685.04, 12699.21, 12705.54, 122.69, 123.11, 125.91, 123.40, 0.00, 0.00, 0.00
37, 13100.71, 13102.01, 13116.54, 13123.02, 493.15, 492.74, 496.63, 494.04, 0.40, -0.81, 0.42
38, 13923.44, 13924.94, 13940.78, 13947.09, 1255.07, 1254.36, 1259.43, 1256.44, 0.00, 0.00, 0.00
39, 13592.01, 13593.08, 13608.84, 13614.71, 957.79, 957.35, 961.84, 959.00, 0.00, 0.00, 0.00
40, 12734.53, 12735.82, 12749.77, 12756.12, 159.12, 158.72, 161.98, 159.52, 0.00, 0.00, 0.00
41, 12942.53, 12944.03, 12958.09, 12964.66, 331.86, 331.57, 335.30, 332.46, 0.00, 0.00, 0.00
42, 13800.66, 13802.16, 13818.07, 13824.13, 1136.99, 1136.18, 1141.32, 1138.28, 0.00, 0.00, 0.00
43, 13706.25, 13707.61, 13723.30, 13729.42, 1066.13, 1065.46, 1070.27, 1067.56, 0.00, 0.00, 0.00
44, 12834.04, 12835.29, 12849.97, 12856.30, 277.47, 277.25, 280.72, 278.01, 0.00, 0.00, 0.00
45, 12840.09, 12841.14, 12855.85, 12862.00, 266.79, 266.14, 269.85, 267.39, 0.00, 0.00, 0.00
46, 13747.04, 13748.40, 13764.38, 13770.42, 1087.64, 1086.76, 1091.95, 1089.56, 0.00, 0.00, 0.00
47, 13878.26, 13879.38, 13895.65, 13901.60, 1219.22, 1218.91, 1223.76, 1221.17, 0.40, -0.81, 0.42
48, 13014.30, 13015.44, 13029.88, 13036.27, 416.12, 416.21, 419.68, 417.17, 0.00, 0.00, 0.00
49, 12725.34, 12726.70, 12740.61, 12746.95, 129.95, 129.71, 132.79, 130.38, 0.00, 0.00, 0.00
50, 13562.19, 13563.62, 13579.02, 13585.14, 895.97, 895.48, 900.02, 897.13, 0.00, 0.00, 0.00
51, 13960.70, 13962.11, 13978.02, 13984.28, 1267.84, 1267.37, 1272.57, 1269.87, 0.00, 0.00, 0.00
52, 13145.35, 13146.80, 13161.49, 13167.73, 524.22, 523.99, 527.68, 525.31, 0.00, 0.00, 0.00
53, 12659.63, 12661.10, 12674.89, 12681.11, 48.68, 48.59, 51.70, 49.08, 0.00, 0.00, 0.00
54, 13410.42, 13411.85, 13426.96, 13432.97, 733.16, 732.80, 737.29, 734.52, 0.00, 0.00, 0.00
55, 13979.92, 13981.49, 13997.35, 14003.52, 1276.42, 1275.64, 1281.07, 1278.36, 0.00, 0.00, 0.00
56, 13304.07, 13305.34, 13320.34, 13326.42, 685.48, 685.17, 689.22, 686.85, 0.00, 0.00, 0.00
57, 12657.41, 12658.66, 12672.79, 12679.05, 90.14, 90.23, 93.41, 90.82, 0.39, -0.82, 0.42
58, 13242.87, 13244.12, 13258.94, 13265.51, 632.24, 631.93, 636.29, 633.49, 0.00, 0.00, 0.00
59, 14002.27, 14003.95, 14019.75, 14025.96, 1354.25, 1353.62, 1358.99, 1355.74, 0.00, 0.00, 0.00
60, 13500.52, 13501.93, 13517.37, 13523.39, 903.90, 903.59, 907.79, 905.31, 0.00, 0.00, 0.00
61, 12698.92, 12700.46, 12714.43, 12720.69, 143.90, 143.63, 146.43, 144.73, 0.00, 0.00, 0.00
62, 13112.94, 13114.39, 13129.03, 13135.23, 489.26, 488.77, 492.43, 490.06, 0.00, 0.00, 0.00
63, 13974.60, 13976.28, 13992.37, 13998.54, 1291.60, 1290.72, 1295.82, 1293.34, 0.00, 0.00, 0.00
64, 13665.23, 13666.53, 13681.86, 13688.16, 1031.18, 1030.66, 1035.31, 1032.58, 0.00, 0.00, 0.00
65, 12807.66, 12808.78, 12822.99, 12829.52, 222.00, 221.64, 225.17, 222.44, 0.00, 0.00, 0.00
66, 12983.93, 12985.36, 12999.98, 13006.23, 373.56, 372.96, 376.98, 374.21, 0.00, 0.00, 0.00
67, 13863.22, 13864.70, 13880.63, 13886.67, 1186.59, 1185.96, 1191.21, 1188.20, 0.00, 0.00, 0.00
68, 13820.15, 13821.38, 13837.34, 13843.51, 1163.14, 1162.60, 1167.50, 1164.57, 0.40, -0.83, 0.42
69, 12930.86, 12932.05, 12946.15, 12952.72, 340.93, 340.44, 343.99, 341.51, 0.00, 0.00, 0.00
70, 12826.91, 12828.00, 12842.35, 12848.72, 215.36, 214.89, 218.24, 215.92, 0.00, 0.00, 0.00
71, 13691.85, 13692.79, 13708.91, 13714.87, 993.38, 992.62, 997.85, 994.74, 0.00, 0.00, 0.00
72, 13899.75, 13901.04, 13917.56, 13923.17, 1211.96, 1211.22, 1216.58, 1213.50, 0.00, 0.00, 0.00
73, 13056.12, 13057.46, 13072.48, 13078.16, 472.09, 471.91, 475.33, 472.92, 0.00, 0.00, 0.00
74, 12773.82, 12775.45, 12789.80, 12795.84, 205.03, 204.94, 208.27, 205.55, 0.00, 0.00, 0.00
75, 13607.09, 13608.86, 13624.15, 13630.29, 955.09, 954.78, 959.58, 956.32, 0.00, 0.00, 0.00
76, 14027.89, 14029.92, 14045.90, 14051.63, 1360.84, 1360.01, 1365.49, 1362.54, 0.00, 0.00, 0.00
77, 13207.53, 13209.08, 13223.65, 13229.86, 608.75, 608.37, 612.42, 609.89, 0.00, 0.00, 0.00
78, 12688.26, 12689.35, 12703.37, 12709.78, 113.75, 113.52, 116.74, 114.28, 0.40, -0.82, 0.42
79, 13400.38, 13401.50, 13416.70, 13422.89, 763.00, 762.33, 766.75, 764.23, 0.00, 0.00, 0.00
80, 14008.96, 14009.96, 14026.30, 14032.25, 1340.32, 1339.99, 1345.13, 1342.45, 0.00, 0.00, 0.00
81, 13349.36, 13350.23, 13365.52, 13371.68, 730.21, 730.28, 734.25, 731.82, 0.00, 0.00, 0.00
82, 12660.27, 12661.15, 12675.38, 12681.62, 84.91, 85.00, 88.20, 85.61, 0.00, 0.00, 0.00
83, 13253.27, 13254.56, 13269.78, 13275.68, 615.81, 615.59, 619.50, 617.09, 0.00, 0.00, 0.00
84, 14021.03, 14022.28, 14038.77, 14044.49, 1328.95, 1328.19, 1333.57, 1330.96, 0.00, 0.00, 0.00
85, 13511.25, 13512.19, 13528.04, 13533.65, 870.44, 870.24, 874.71, 872.12, 0.00, 0.00, 0.00
86, 12733.59, 12734.91, 12748.83, 12755.04, 160.84, 160.66, 163.97, 161.42, 0.00, 0.00, 0.00
87, 13128.10, 13129.59, 13144.48, 13150.56, 504.39, 503.72, 507.88, 505.22, 0.00, 0.00, 0.00
88, 13979.38, 13980.79, 13997.09, 14003.08, 1296.47, 1295.95, 1301.18, 1298.12, 0.40, -0.81, 0.41
89, 13693.01, 13694.24, 13709.84, 13715.95, 1071.79, 1071.50, 1076.12, 1073.15, 0.00, 0.00, 0.00
90, 12836.79, 12837.77, 12852.19, 12858.15, 281.54, 281.36, 284.52, 281.92, 0.00, 0.00, 0.00
91, 12993.14, 12994.43, 13009.43, 13015.11, 407.65, 407.61, 411.00, 408.39, 0.00, 0.00, 0.00
92, 13889.40, 13891.00, 13907.23, 13912.73, 1226.24, 1225.64, 1230.98, 1227.89, 0.00, 0.00, 0.00
93, 13861.50, 13862.80, 13878.78, 13884.81, 1219.09, 1218.46, 1223.65, 1220.76, 0.00, 0.00, 0.00
94, 12979.95, 12980.93, 12995.44, 13001.74, 407.47, 407.27, 410.85, 408.32, 0.00, 0.00, 0.00
95, 12901.49, 12902.99, 12917.30, 12923.35, 317.35, 316.90, 320.46, 317.86, 0.00, 0.00, 0.00
96, 13768.07, 13769.57, 13785.30, 13791.56, 1104.38, 1103.71, 1108.60, 1105.96, 0.00, 0.00, 0.00
97, 13981.62, 13983.07, 13999.14, 14005.22, 1311.87, 1311.29, 1316.27, 1313.81, 0.00, 0.00, 0.00
98, 13133.95, 13135.25, 13150.31, 13156.08, 525.71, 525.40, 528.98, 526.76, 0.40, -0.83, 0.41
99, 12808.38, 12809.87, 12824.09, 12830.30, 222.67, 222.18, 225.44, 223.14, 0.00, 0.00, 0.00
100, 13627.63, 13629.27, 13644.76, 13650.70, 987.59, 987.21, 991.52, 989.09, 0.00, 0.00, 0.00
101, 14077.64, 14078.94, 14095.19, 14101.00, 1428.90, 1428.57, 1433.73, 1430.94, 0.00, 0.00, 0.00
102, 13267.41, 13268.80, 13283.53, 13289.92, 687.49, 687.20, 691.07, 688.41, 0.00, 0.00, 0.00
103, 12711.91, 12713.63, 12727.46, 12733.97, 138.60, 138.31, 141.31, 138.76, 0.00, 0.00, 0.00
104, 13455.19, 13456.73, 13472.31, 13478.41, 807.41, 806.29, 810.79, 808.26, 0.00, 0.00, 0.00
105, 14104.31, 14105.74, 14122.19, 14128.00, 1409.46, 1408.63, 1414.24, 1411.69, 0.00, 0.00, 0.00
106, 13437.00, 13438.20, 13453.47, 13459.50, 811.66, 811.41, 815.59, 813.36, 0.00, 0.00, 0.00
107, 12701.40, 12702.32, 12716.76, 12723.13, 139.74, 139.81, 142.58, 140.21, 0.00, 0.00, 0.00
108, 13321.15, 13322.33, 13338.02, 13343.99, 707.95, 707.63, 711.75, 709.02, 0.00, 0.00, 0.00
109, 14060.99, 14062.58, 14078.98, 14085.20, 1405.25, 1404.61, 1410.22, 1407.56, 0.41, -0.81, 0.41
110, 13532.35, 13533.80, 13548.93, 13555.08, 931.93, 931.53, 935.78, 933.52, 0.00, 0.00, 0.00
111, 12726.43, 12727.57, 12741.88, 12748.16, 182.10, 181.52, 184.69, 182.37, 0.00, 0.00, 0.00
112, 13115.74, 13116.92, 13132.23, 13138.13, 514.60, 514.00, 517.85, 515.36, 0.00, 0.00, 0.00
113, 13980.10, 13981.73, 13998.47, 14003.84, 1314.77, 1314.15, 1319.18, 1316.58, 0.00, 0.00, 0.00
114, 13686.64, 13688.10, 13703.81, 13709.84, 1058.56, 1058.13, 1062.56, 1059.99, 0.00, 0.00, 0.00
115, 12756.77, 12757.77, 12772.10, 12778.67, 186.08, 186.32, 189.63, 186.68, 0.00, 0.00, 0.00
116, 12926.19, 12927.76, 12942.35, 12948.68, 316.57, 316.37, 320.21, 317.19, 0.00, 0.00, 0.00
117, 13880.01, 13881.57, 13897.55, 13903.66, 1192.53, 1192.00, 1197.18, 1194.23, 0.00, 0.00, 0.00
118, 13843.87, 13845.36, 13860.83, 13867.16, 1174.65, 1174.09, 1178.85, 1176.10, 0.00, 0.00, 0.00
119, 12915.89, 12917.01, 12931.31, 12937.66, 333.51, 333.24, 336.48, 334.23, 0.40, -0.82, 0.41
120, 12853.17, 12854.22, 12868.95, 12874.96, 265.70, 265.49, 268.78, 266.41, 0.00, 0.00, 0.00
121, 13738.39, 13739.59, 13755.96, 13761.54, 1097.85, 1097.29, 1102.48, 1099.50, 0.00, 0.00, 0.00
122, 13932.94, 13933.99, 13950.59, 13956.18, 1301.72, 1301.01, 1306.10, 1303.24, 0.00, 0.00, 0.00
123, 13072.98, 13073.94, 13088.91, 13095.06, 471.87, 471.53, 474.91, 472.76, 0.00, 0.00, 0.00
124, 12745.72, 12747.15, 12761.19, 12767.52, 135.61, 135.50, 138.42, 136.14, 0.00, 0.00, 0.00
125, 13597.71, 13599.45, 13614.96, 13620.86, 939.31, 938.59, 943.15, 940.92, 0.00, 0.00, 0.00
126, 14056.81, 14058.06, 14074.47, 14080.37, 1403.91, 1402.97, 1408.29, 1406.08, 0.00, 0.00, 0.00
127, 13206.64, 13207.89, 13222.75, 13229.24, 626.45, 626.34, 629.85, 627.75, 0.00, 0.00, 0.00
128, 12664.30, 12665.88, 12679.72, 12686.09, 99.09, 99.20, 101.77, 99.53, 0.00, 0.00, 0.00
129, 13464.58, 13466.12, 13481.45, 13487.74, 843.69, 843.26, 847.69, 844.85, 0.39, -0.82, 0.42
130, 14077.26, 14078.78, 14095.10, 14101.22, 1424.88, 1424.30, 1429.95, 1426.80, 0.00, 0.00, 0.00
131, 13393.59, 13394.75, 13410.02, 13416.25, 794.81, 794.54, 798.90, 796.03, 0.00, 0.00, 0.00
132, 12728.83, 12729.72, 12743.94, 12750.31, 168.44, 168.29, 171.39, 169.05, 0.00, 0.00, 0.00
133, 13315.27, 13316.54, 13331.70, 13337.89, 692.23, 691.59, 695.56, 693.33, 0.00, 0.00, 0.00
134, 14110.39, 14112.09, 14128.51, 14134.24, 1432.72, 1431.99, 1437.44, 1434.60, 0.00, 0.00, 0.00
135, 13610.60, 13612.01, 13627.50, 13633.25, 997.00, 996.69, 1001.11, 998.52, 0.00, 0.00, 0.00
136, 12783.16, 12784.28, 12798.59, 12804.80, 209.75, 209.39, 212.61, 210.40, 0.00, 0.00, 0.00
137, 13171.99, 13173.02, 13188.18, 13194.28, 548.49, 547.82, 552.04, 549.81, 0.00, 0.00, 0.00
138, 14081.67, 14083.25, 14099.59, 14105.56, 1410.22, 1409.52, 1415.13, 1412.52, 0.00, 0.00, 0.00
139, 13780.43, 13781.93, 13797.44, 13803.72, 1165.71, 1165.24, 1169.96, 1167.41, 0.39, -0.82, 0.42
140, 12874.36, 12875.25, 12889.87, 12896.00, 317.37, 317.48, 320.28, 317.86, 0.00, 0.00, 0.00
141, 13058.76, 13059.92, 13074.50, 13080.93, 453.03, 452.94, 456.71, 453.87, 0.00, 0.00, 0.00
142, 13980.95, 13982.67, 13998.63, 14004.84, 1311.87, 1311.29, 1316.58, 1313.57, 0.00, 0.00, 0.00
143, 13948.43, 13949.81, 13965.86, 13972.03, 1312.54, 1312.07, 1317.17, 1314.44, 0.00, 0.00, 0.00
144, 13055.41, 13056.50, 13071.37, 13077.58, 499.65, 499.63, 503.05, 500.28, 0.00, 0.00, 0.00
145, 12956.93, 12958.27, 12972.66, 12979.03, 382.73, 382.53, 386.08, 383.40, 0.00, 0.00, 0.00
146, 13878.11, 13879.78, 13895.70, 13901.89, 1234.29, 1233.82, 1238.78, 1235.94, 0.00, 0.00, 0.00
147, 14131.60, 14132.99, 14149.57, 14155.27, 1482.14, 1481.65, 1486.70, 1484.02, 0.00, 0.00, 0.00
148, 13224.36, 13225.71, 13240.57, 13246.65, 628.42, 628.62, 632.06, 629.56, 0.00, 0.00, 0.00
149, 12857.21, 12858.62, 12872.73, 12879.16, 271.19, 271.33, 274.68, 272.15, 0.40, -0.82, 0.42
150, 13737.83, 13739.30, 13755.06, 13761.25, 1099.77, 1099.35, 1104.09, 1101.54, 0.00, 0.00, 0.00
151, 14193.83, 14195.32, 14211.91, 14217.63, 1546.36, 1545.89, 1551.57, 1548.66, 0.00, 0.00, 0.00
152, 13377.81, 13379.13, 13394.39, 13400.18, 789.55, 789.62, 793.55, 790.76, 0.00, 0.00, 0.00
153, 12852.57, 12853.84, 12867.97, 12874.36, 294.10, 294.19, 297.17, 294.57, 0.00, 0.00, 0.00
154, 13576.96, 13578.42, 13593.68, 13600.01, 954.62, 953.95, 958.78, 955.78, 0.00, 0.00, 0.00
155, 14228.70, 14229.54, 14246.58, 14252.23, 1583.02, 1582.28, 1587.91, 1584.98, 0.00, 0.00, 0.00
156, 13571.62, 13572.52, 13588.43, 13594.40, 988.60, 988.30, 992.62, 990.05, 0.00, 0.00, 0.00
157, 12837.37, 12838.51, 12852.81, 12859.45, 284.83, 284.34, 287.87, 285.01, 0.00, 0.00, 0.00
158, 13415.25, 13416.75, 13432.08, 13438.09, 804.60, 803.95, 808.28, 805.47, 0.00, 0.00, 0.00
159, 14250.31, 14251.79, 14268.53, 14274.11, 1584.94, 1583.93, 1589.68, 1586.77, 0.00, 0.00, 0.00
160, 13719.28, 13720.55, 13736.24, 13741.99, 1116.49, 1116.42, 1120.74, 1117.99, 0.40, -0.81, 0.41
161, 12856.03, 12857.24, 12871.45, 12877.85, 311.45, 311.61, 314.58, 311.94, 0.00, 0.00, 0.00
162, 13242.60, 13243.72, 13258.74, 13265.18, 694.40, 694.29, 698.34, 695.32, 0.00, 0.00, 0.00
163, 14146.91, 14148.56, 14164.63, 14170.76, 1542.00, 1541.31, 1546.87, 1543.70, 0.00, 0.00, 0.00
164, 13891.50, 13892.68, 13908.89, 13914.63, 1304.07, 1303.91, 1308.72, 1305.74, 0.00, 0.00, 0.00
165, 12991.42, 12992.51, 13007.11, 13013.14, 462.21, 462.44, 465.72, 462.99, 0.00, 0.00, 0.00
166, 13112.49, 13113.95, 13128.43, 13134.64, 559.33, 559.15, 562.88, 560.27, 0.00, 0.00, 0.00
167, 14019.08, 14020.38, 14036.60, 14042.24, 1376.13, 1375.59, 1380.62, 1377.96, 0.00, 0.00, 0.00
168, 14039.55, 14040.67, 14057.28, 14062.91, 1403.73, 1403.31, 1408.14, 1405.66, 0.00, 0.00, 0.00
169, 13100.49, 13101.50, 13115.91, 13122.28, 539.88, 539.64, 542.90, 540.29, 0.00, 0.00, 0.00
170, 12948.66, 12950.06, 12964.68, 12970.67, 395.42, 395.22, 398.91, 395.96, 0.39, -0.81, 0.42
171, 13890.56, 13892.01, 13908.24, 13914.25, 1290.21, 1289.61, 1294.97, 1291.98, 0.00, 0.00, 0.00
172, 14166.65, 14167.90, 14184.55, 14190.52, 1562.23, 1561.72, 1567.28, 1564.42, 0.00, 0.00, 0.00
173, 13276.02, 13277.05, 13292.16, 13298.19, 735.44, 735.06, 739.15, 736.27, 0.00, 0.00, 0.00
174, 12899.46, 12900.78, 12915.33, 12921.48, 366.55, 366.48, 370.01, 367.33, 0.00, 0.00, 0.00
175, 13726.83, 13728.55, 13744.24, 13750.37, 1107.77, 1107.44, 1112.31, 1109.50, 0.00, 0.00, 0.00
176, 14240.03, 14241.66, 14258.47, 14264.26, 1602.53, 1602.40, 1607.65, 1604.94, 0.00, 0.00, 0.00
177, 13485.43, 13486.33, 13501.88, 13507.90, 943.91, 943.91, 948.07, 945.48, 0.00, 0.00, 0.00
178, 12886.90, 12887.75, 12902.48, 12908.13, 377.59, 377.50, 380.74, 378.17, 0.00, 0.00, 0.00
179, 13595.96, 13597.37, 13613.06, 13618.83, 1028.87, 1028.43, 1032.78, 1030.30, 0.00, 0.00, 0.00
180, 14308.65, 14309.83, 14326.93, 14332.68, 1708.12, 1707.92, 1713.57, 1710.74, 0.40, -0.82, 0.42
181, 13647.93, 13649.32, 13665.14, 13670.71, 1101.90, 1101.56, 1106.25, 1103.35, 0.00, 0.00, 0.00
182, 12881.18, 12882.34, 12896.82, 12902.63, 362.55, 362.50, 365.56, 363.44, 0.00, 0.00, 0.00
183, 13443.61, 13445.13, 13460.44, 13466.59, 864.97, 864.59, 869.01, 866.42, 0.00, 0.00, 0.00
184, 14283.08, 14284.64, 14301.38, 14307.17, 1662.28, 1661.74, 1667.55, 1664.49, 0.00, 0.00, 0.00
185, 13812.44, 13813.94, 13829.63, 13835.71, 1244.46, 1244.10, 1248.59, 1245.95, 0.00, 0.00, 0.00
186, 12954.98, 12956.34, 12970.72, 12977.36, 452.11, 452.24, 455.37, 452.78, 0.00, 0.00, 0.00
187, 13245.51, 13246.83, 13262.29, 13268.24, 716.17, 715.99, 719.97, 717.09, 0.00, 0.00, 0.00
188, 14178.74, 14180.82, 14197.47, 14202.95, 1581.92, 1581.70, 1587.26, 1583.91, 0.00, 0.00, 0.00
189, 13990.25, 13991.50, 14007.86, 14013.60, 1434.98, 1435.03, 1439.97, 1437.08, 0.00, 0.00, 0.00
190, 13038.20, 13039.56, 13054.16, 13060.30, 554.28, 554.35, 557.47, 555.42, 0.39, -0.81, 0.42
191, 13100.60, 13102.08, 13116.70, 13123.04, 581.61, 581.48, 584.88, 582.78, 0.00, 0.00, 0.00
192, 14074.76, 14076.08, 14092.42, 14098.32, 1482.43, 1481.61, 1486.91, 1484.18, 0.00, 0.00, 0.00
193, 14116.11, 14117.34, 14133.79, 14139.78, 1529.51, 1528.75, 1534.20, 1531.21, 0.00, 0.00, 0.00
194, 13180.31, 13181.34, 13196.49, 13202.71, 655.26, 655.04, 658.64, 656.49, 0.00, 0.00, 0.00
195, 13011.04, 13012.36, 13026.82, 13033.37, 478.57, 478.51, 481.97, 479.60, 0.00, 0.00, 0.00
196, 13931.01, 13932.58, 13948.85, 13954.77, 1329.84, 1329.33, 1334.38, 1331.69, 0.00, 0.00, 0.00
197, 14221.36, 14222.88, 14239.49, 14245.17, 1606.58, 1606.02, 1611.25, 1608.16, 0.00, 0.00, 0.00
198, 13342.61, 13343.86, 13358.79, 13364.69, 786.96, 787.09, 790.78, 788.14, 0.00, 0.00, 0.00
199, 12870.36, 12871.77, 12885.85, 12891.99, 343.26, 343.61, 347.10, 344.35, 0.00, 0.00, 0.00
200, 13677.34, 13679.00, 13694.20, 13700.41, 1105.85, 1105.43, 1110.39, 1107.22, 0.39, -0.81, 0.43
201, 14232.29, 14233.61, 14249.82, 14255.85, 1645.58, 1645.11, 1650.70, 1647.66, 0.00, 0.00, 0.00
202, 13417.33, 13418.56, 13433.87, 13439.83, 894.81, 895.25, 898.96, 896.35, 0.00, 0.00, 0.00
203, 12760.30, 12761.71, 12775.79, 12782.05, 260.15, 260.22, 263.17, 260.64, 0.00, 0.00, 0.00
204, 13448.46, 13450.18, 13465.63, 13471.51, 881.78, 881.24, 885.84, 882.96, 0.00, 0.00, 0.00
205, 14138.28, 14139.94, 14156.43, 14162.22, 1520.43, 1519.72, 1525.31, 1522.06, 0.00, 0.00, 0.00
206, 13487.87, 13489.14, 13504.39, 13510.31, 948.34, 948.30, 951.94, 949.35, 0.00, 0.00, 0.00
207, 12712.98, 12714.14, 12728.18, 12734.48, 229.46, 229.57, 232.23, 229.95, 0.00, 0.00, 0.00
208, 13209.86, 13211.29, 13226.44, 13231.99, 659.56, 659.33, 663.36, 660.72, 0.00, 0.00, 0.00
209, 14069.19, 14070.78, 14087.25, 14092.62, 1460.64, 1460.19, 1465.69, 1462.72, 0.00, 0.00, 0.00
210, 13665.34, 13666.64, 13682.75, 13688.50, 1123.26, 1122.97, 1127.42, 1124.99, 0.00, 0.00, 0.00
211, 12786.11, 12787.12, 12801.20, 12807.66, 310.31, 310.26, 313.33, 310.71, 0.39, -0.82, 0.43
212, 13070.92, 13072.22, 13086.63, 13093.25, 549.94, 549.61, 553.30, 550.68, 0.00, 0.00, 0.00
213, 14067.70, 14069.06, 14085.51, 14091.68, 1467.08, 1466.50, 1472.29, 1469.25, 0.00, 0.00, 0.00
214, 13970.44, 13971.96, 13988.01, 13994.16, 1386.21, 1385.56, 1390.93, 1388.11, 0.00, 0.00, 0.00
215, 13092.40, 13094.19, 13108.85, 13115.09, 576.97, 577.30, 580.63, 578.04, 0.00, 0.00, 0.00
216, 13214.49, 13216.16, 13231.00, 13237.17, 665.37, 665.52, 669.03, 666.28, 0.00, 0.00, 0.00
217, 14162.13, 14163.47, 14180.01, 14186.07, 1549.22, 1548.73, 1554.18, 1550.72, 0.00, 0.00, 0.00
218, 14302.23, 14303.57, 14320.38, 14326.22, 1698.96, 1698.42, 1703.96, 1700.70, 0.00, 0.00, 0.00
219, 13449.11, 13450.25, 13465.63, 13471.89, 898.83, 898.54, 902.72, 899.97, 0.00, 0.00, 0.00
220, 13236.34, 13237.44, 13252.59, 13258.50, 688.75, 688.34, 692.10, 689.62, 0.00, 0.00, 0.00
221, 14144.50, 14146.22, 14162.58, 14168.39, 1545.02, 1544.35, 1549.96, 1547.05, 0.40, -0.81, 0.43
222, 14546.04, 14547.48, 14564.46, 14570.19, 1936.51, 1936.02, 1941.90, 1938.83, 0.00, 0.00, 0.00
223, 13707.21, 13708.28, 13724.22, 13729.78, 1152.90, 1152.63, 1157.17, 1154.07, 0.00, 0.00, 0.00
224, 13270.77, 13271.86, 13287.20, 13292.96, 734.28, 734.21, 738.12, 735.31, 0.00, 0.00, 0.00
225, 14123.31, 14124.49, 14141.19, 14146.84, 1502.91, 1502.55, 1507.78, 1504.67, 0.00, 0.00, 0.00
226, 14744.64, 14746.09, 14763.57, 14769.34, 2077.06, 2076.54, 2082.98, 2079.54, 0.00, 0.00, 0.00
227, 13959.36, 13960.68, 13976.57, 13982.49, 1367.59, 1367.57, 1372.42, 1369.74, 0.00, 0.00, 0.00
228, 13331.00, 13332.03, 13347.25, 13353.40, 766.15, 766.15, 770.15, 767.58, 0.00, 0.00, 0.00
229, 14009.51, 14010.83, 14027.31, 14033.01, 1396.40, 1396.13, 1401.54, 1398.46, 0.00, 0.00, 0.00
230, 14752.84, 14754.45, 14771.95, 14777.56, 2124.02, 2123.71, 2130.01, 2126.88, 0.00, 0.00, 0.00
231, 14173.35, 14174.34, 14190.79, 14196.82, 1625.33, 1624.84, 1630.34, 1627.05, 0.40, -0.81, 0.43
232, 13342.49, 13343.41, 13358.65, 13365.14, 829.45, 828.98, 833.23, 830.34, 0.00, 0.00, 0.00
233, 13830.45, 13832.06, 13848.09, 13854.08, 1240.52, 1239.76, 1244.95, 1241.77, 0.00, 0.00, 0.00
234, 14727.41, 14728.97, 14746.54, 14752.17, 2063.38, 2062.48, 2068.74, 2065.44, 0.00, 0.00, 0.00
235, 14322.24, 14323.78, 14340.41, 14346.15, 1712.77, 1712.88, 1717.84, 1715.03, 0.00, 0.00, 0.00
236, 13411.14, 13412.52, 13427.65, 13433.71, 856.32, 856.76, 860.39, 858.15, 0.00, 0.00, 0.00
237, 13677.32, 13678.84, 13694.29, 13700.41, 1079.86, 1079.90, 1084.35, 1081.67, 0.00, 0.00, 0.00
238, 14584.83, 14586.21, 14603.76, 14609.32, 1919.79, 1919.30, 1925.22, 1922.21, 0.00, 0.00, 0.00
239, 14438.96, 14440.14, 14457.24, 14462.72, 1799.90, 1799.45, 1804.97, 1802.13, 0.00, 0.00, 0.00
240, 13515.21, 13516.28, 13531.81, 13537.60, 941.30, 941.12, 944.88, 942.42, 0.00, 0.00, 0.00
241, 13467.78, 13468.76, 13484.29, 13490.24, 901.42, 901.24, 905.11, 902.41, 0.40, -0.81, 0.43
242, 14389.67, 14391.04, 14408.00, 14413.70, 1749.20, 1748.60, 1754.43, 1751.33, 0.00, 0.00, 0.00
243, 14539.43, 14540.61, 14557.76, 14563.41, 1890.51, 1890.06, 1895.83, 1892.32, 0.00, 0.00, 0.00
244, 13569.23, 13570.19, 13585.86, 13591.72, 987.70, 987.61, 991.30, 988.62, 0.00, 0.00, 0.00
245, 13276.40, 13277.87, 13293.05, 13298.68, 676.43, 676.32, 679.98, 677.46, 0.00, 0.00, 0.00
246, 14187.84, 14189.58, 14206.08, 14211.93, 1519.32, 1518.82, 1524.23, 1521.01, 0.00, 0.00, 0.00
247, 14541.93, 14543.50, 14560.19, 14566.09, 1895.34, 1895.07, 1900.90, 1897.64, 0.00, 0.00, 0.00
248, 13670.84, 13672.14, 13687.69, 13693.55, 1110.90, 1110.97, 1115.31, 1112.63, 0.00, 0.00, 0.00
249, 13172.55, 13173.83, 13188.85, 13194.61, 622.03, 622.12, 625.65, 622.92, 0.00, 0.00, 0.00
250, 13930.19, 13931.77, 13948.18, 13953.95, 1328.83, 1328.39, 1333.46, 1330.40, 0.00, 0.00, 0.00
251, 14516.18, 14517.68, 14534.76, 14540.44, 1884.16, 1883.58, 1889.59, 1886.62, 0.00, 0.00, 0.00
252, 13800.48, 13801.51, 13817.42, 13823.30, 1216.29, 1216.09, 1220.58, 1218.19, 0.40, -0.81, 0.43
253, 13103.42, 13104.27, 13119.22, 13125.44, 544.80, 544.67, 548.02, 545.70, 0.00, 0.00, 0.00
254, 13765.46, 13766.89, 13782.55, 13788.77, 1144.72, 1144.50, 1148.92, 1146.49, 0.00, 0.00, 0.00
255, 14557.56, 14558.90, 14575.75, 14581.96, 1891.87, 1891.61, 1897.28, 1894.29, 0.00, 0.00, 0.00
0, 13991.59, 13992.93, 14008.89, 14015.04, 1372.78, 1372.73, 1377.23, 1374.25, 0.00, 0.00, 0.00
1, 13112.94, 13113.95, 13128.65, 13134.62, 536.87, 536.75, 539.93, 537.36, 0.00, 0.00, 0.00
2, 13574.24, 13575.47, 13590.93, 13597.08, 939.64, 939.51, 943.85, 940.92, 0.00, 0.00, 0.00
3, 14427.25, 14428.72, 14445.84, 14451.39, 1747.91, 1747.57, 1753.20, 1749.99, 0.00, 0.00, 0.00
4, 14073.31, 14074.36, 14090.99, 14096.60, 1451.61, 1451.32, 1455.99, 1453.29, 0.00, 0.00, 0.00
5, 13169.42, 13170.45, 13185.67, 13191.49, 613.91, 614.02, 617.36, 614.94, 0.00, 0.00, 0.00
6, 13369.32, 13370.90, 13385.99, 13392.18, 784.81, 784.73, 788.61, 785.57, 0.40, -0.82, 0.42
7, 14304.54, 14306.14, 14322.95, 14328.88, 1634.65, 1634.23, 1639.59, 1636.55, 0.00, 0.00, 0.00
8, 14212.07, 14213.54, 14229.92, 14235.45, 1561.69, 1561.27, 1566.57, 1563.48, 0.00, 0.00, 0.00
9, 13231.07, 13232.41, 13247.01, 13252.86, 658.10, 658.08, 661.72, 658.77, 0.00, 0.00, 0.00
10, 13194.91, 13196.16, 13210.73, 13216.61, 610.96, 610.78, 614.76, 611.95, 0.00, 0.00, 0.00
11, 14134.42, 14135.89, 14152.36, 14158.11, 1474.01, 1473.29, 1478.93, 1475.82, 0.00, 0.00, 0.00
12, 14289.54, 14290.88, 14307.44, 14313.16, 1627.74, 1627.39, 1633.04, 1630.18, 0.00, 0.00, 0.00
13, 13353.07, 13354.45, 13369.09, 13375.31, 760.61, 760.70, 764.34, 761.93, 0.00, 0.00, 0.00
14, 13025.72, 13027.00, 13041.57, 13047.85, 434.07, 434.07, 437.33, 434.94, 0.00, 0.00, 0.00
15, 13926.39, 13928.13, 13944.09, 13950.01, 1275.03, 1274.81, 1279.73, 1276.71, 0.00, 0.00, 0.00
16, 14344.99, 14346.35, 14363.01, 14368.62, 1688.43, 1688.12, 1693.55, 1690.37, 0.40, -0.82, 0.42
17, 13482.59, 13483.67, 13499.07, 13505.24, 880.17, 880.23, 884.26, 881.51, 0.00, 0.00, 0.00
18, 12944.30, 12945.48, 12959.79, 12966.31, 361.79, 361.72, 364.71, 362.39, 0.00, 0.00, 0.00
19, 13710.40, 13711.86, 13727.46, 13733.74, 1067.68, 1067.18, 1071.56, 1068.95, 0.00, 0.00, 0.00
20, 14324.07, 14325.63, 14342.35, 14348.21, 1648.13, 1647.70, 1652.91, 1650.14, 0.00, 0.00, 0.00
21, 13587.04, 13588.16, 13603.90, 13609.87, 993.33, 993.78, 997.02, 995.05, 0.00, 0.00, 0.00
22, 12870.45, 12871.43, 12885.80, 12892.11, 322.60, 322.74, 325.60, 323.30, 0.00, 0.00, 0.00
23, 13483.31, 13484.63, 13499.78, 13506.06, 870.35, 869.86, 874.22, 871.47, 0.00, 0.00, 0.00
24, 14265.24, 14266.83, 14283.35, 14289.18, 1594.66, 1594.08, 1599.51, 1596.79, 0.00, 0.00, 0.00
25, 13727.50, 13728.62, 13744.56, 13750.59, 1110.08, 1110.08, 1114.26, 1111.75, 0.00, 0.00, 0.00
26, 12866.13, 12867.07, 12881.67, 12887.97, 296.90, 297.12, 299.89, 297.52, 0.39, -0.80, 0.41
27, 13283.62, 13284.71, 13300.09, 13306.17, 670.40, 670.42, 674.15, 671.42, 0.00, 0.00, 0.00
28, 14177.51, 14178.92, 14195.41, 14201.11, 1519.27, 1518.80, 1524.30, 1520.95, 0.00, 0.00, 0.00
29, 13871.63, 13872.63, 13888.75, 13894.47, 1251.79, 1251.43, 1256.26, 1253.31, 0.00, 0.00, 0.00
30, 12960.12, 12961.51, 12975.92, 12982.09, 407.20, 406.96, 409.91, 407.61, 0.00, 0.00, 0.00
31, 13121.50, 13122.84, 13137.39, 13143.92, 528.69, 528.31, 531.77, 529.31, 0.00, 0.00, 0.00
32, 14080.32, 14081.62, 14097.98, 14103.91, 1394.66, 1394.15, 1399.20, 1396.56, 0.00, 0.00, 0.00
33, 14015.10, 14016.31, 14032.80, 14038.33, 1359.90, 1359.57, 1364.42, 1361.51, 0.00, 0.00, 0.00
34, 13034.20, 13035.22, 13050.02, 13056.10, 444.15, 444.06, 447.17, 444.82, 0.00, 0.00, 0.00
35, 12965.26, 12966.56, 12981.02, 12987.57, 362.99, 363.08, 365.97, 363.46, 0.00, 0.00, 0.00
36, 13915.10, 13916.84, 13932.98, 13939.06, 1243.38, 1242.58, 1247.50, 1244.46, 0.40, -0.82, 0.42
37, 14097.56, 14098.76, 14115.04, 14121.34, 1433.33, 1432.70, 1437.69, 1434.78, 0.00, 0.00, 0.00
38, 13190.50, 13191.33, 13206.21, 13212.72, 593.62, 593.98, 596.75, 594.49, 0.00, 0.00, 0.00
39, 12857.13, 12858.31, 12873.00, 12879.30, 252.51, 252.93, 255.39, 253.16, 0.00, 0.00, 0.00
40, 13723.61, 13724.82, 13740.80, 13746.97, 1043.74, 1043.45, 1047.94, 1045.37, 0.00, 0.00, 0.00
41, 14172.30, 14173.51, 14189.76, 14195.88, 1487.67, 1487.08, 1492.49, 1489.77, 0.00, 0.00, 0.00
42, 13350.99, 13352.19, 13367.26, 13373.14, 746.24, 745.77, 749.70, 747.35, 0.00, 0.00, 0.00
43, 12839.71, 12841.01, 12855.61, 12861.51, 246.63, 246.38, 249.36, 247.03, 0.00, 0.00, 0.00
44, 13619.57, 13621.11, 13636.75, 13642.63, 961.35, 960.66, 965.24, 962.26, 0.00, 0.00, 0.00
45, 14277.78, 14278.99, 14295.93, 14301.50, 1583.80, 1583.29, 1588.61, 1585.81, 0.00, 0.00, 0.00
46, 13546.30, 13547.73, 13563.53, 13569.10, 923.53, 923.37, 927.28, 924.98, 0.00, 0.00, 0.00
47, 12816.29, 12817.41, 12832.20, 12838.24, 240.50, 240.37, 243.25, 240.91, 0.39, -0.81, 0.42
48, 13427.99, 13429.53, 13444.86, 13450.94, 790.09, 789.51, 793.58, 790.94, 0.00, 0.00, 0.00
49, 14261.51, 14263.12, 14279.72, 14285.58, 1581.63, 1581.14, 1586.55, 1583.60, 0.00, 0.00, 0.00
50, 13738.83, 13740.02, 13755.80, 13761.70, 1102.14, 1102.37, 1106.37, 1103.82, 0.00, 0.00, 0.00
51, 12893.16, 12894.32, 12908.67, 12915.13, 301.93, 302.17, 305.08, 302.46, 0.00, 0.00, 0.00
52, 13312.01, 13313.41, 13328.23, 13334.54, 668.41, 668.38, 671.89, 669.26, 0.00, 0.00, 0.00
53, 14233.10, 14234.69, 14250.80, 14256.70, 1538.85, 1538.45, 1543.70, 1540.77, 0.00, 0.00, 0.00
54, 13941.14, 13942.35, 13958.15, 13964.05, 1304.29, 1303.84, 1308.63, 1305.86, 0.00, 0.00, 0.00
55, 13011.91, 13012.80, 13027.29, 13033.28, 420.79, 420.91, 424.17, 421.73, 0.00, 0.00, 0.00
56, 13197.05, 13198.57, 13213.17, 13219.22, 573.23, 572.72, 576.63, 574.02, 0.00, 0.00, 0.00
57, 14146.33, 14148.07, 14164.17, 14170.09, 1465.43, 1464.98, 1470.25, 1467.26, 0.39, -0.82, 0.42
58, 14136.09, 14137.34, 14153.71, 14159.41, 1478.19, 1477.72, 1482.61, 1479.77, 0.00, 0.00, 0.00
59, 13186.61, 13187.37, 13202.57, 13208.43, 600.32, 600.17, 603.59, 600.95, 0.00, 0.00, 0.00
60, 13110.42, 13111.35, 13126.53, 13132.12, 534.23, 533.96, 537.63, 534.97, 0.00, 0.00, 0.00
61, 14038.59, 14040.25, 14056.83, 14062.33, 1391.93, 1391.53, 1396.60, 1393.77, 0.00, 0.00, 0.00
62, 14290.27, 14292.00, 14308.60, 14314.41, 1643.32, 1643.14, 1648.26, 1645.27, 0.00, 0.00, 0.00
63, 13382.32, 13383.64, 13398.64, 13404.92, 802.29, 802.45, 805.98, 803.37, 0.00, 0.00, 0.00
64, 13013.86, 13015.46, 13030.04, 13036.39, 436.08, 435.86, 439.41, 436.46, 0.00, 0.00, 0.00
65, 13891.61, 13893.13, 13909.33, 13915.39, 1240.19, 1239.72, 1244.52, 1241.86, 0.00, 0.00, 0.00
66, 14402.32, 14403.87, 14420.92, 14426.91, 1724.46, 1724.19, 1729.56, 1726.92, 0.00, 0.00, 0.00
67, 13557.65, 13559.01, 13574.37, 13580.38, 949.17, 949.08, 953.01, 950.44, 0.40, -0.83, 0.42
68, 12974.58, 12975.92, 12990.32, 12996.53, 397.84, 397.84, 400.83, 398.55, 0.00, 0.00, 0.00
69, 13719.75, 13721.65, 13737.05, 13743.33, 1079.61, 1079.43, 1084.04, 1081.44, 0.00, 0.00, 0.00
70, 14436.19, 14437.62, 14454.60, 14460.21, 1762.41, 1762.30, 1767.46, 1764.65, 0.00, 0.00, 0.00
71, 13739.73, 13740.78, 13756.92, 13762.33, 1144.43, 1144.74, 1149.01, 1146.47, 0.00, 0.00, 0.00
72, 12976.17, 12977.09, 12991.84, 12997.63, 424.37, 424.48, 427.75, 424.93, 0.00, 0.00, 0.00
73, 13560.98, 13562.23, 13577.66, 13583.58, 933.32, 933.01, 937.37, 934.37, 0.00, 0.00, 0.00
74, 14400.87, 14402.48, 14419.00, 14424.79, 1717.64, 1716.79, 1722.63, 1719.54, 0.00, 0.00, 0.00
75, 13915.39, 13916.78, 13932.76, 13938.75, 1280.91, 1280.46, 1285.02, 1282.57, 0.00, 0.00, 0.00
76, 13035.51, 13036.57, 13051.41, 13057.44, 442.54, 442.83, 445.67, 443.37, 0.00, 0.00, 0.00
77, 13398.44, 13399.60, 13415.02, 13420.46, 782.22, 782.38, 785.91, 783.29, 0.40, -0.82, 0.42
78, 14330.46, 14332.09, 14348.84, 14354.36, 1683.78, 1683.49, 1688.74, 1685.86, 0.00, 0.00, 0.00
79, 14078.78, 14080.15, 14096.48, 14102.43, 1462.14, 1461.83, 1466.70, 1463.84, 0.00, 0.00, 0.00
80, 13152.03, 13153.53, 13168.11, 13174.34, 580.56, 580.59, 583.89, 581.17, 0.00, 0.00, 0.00
81, 13264.67, 13265.94, 13281.38, 13287.11, 669.17, 669.01, 672.74, 670.06, 0.00, 0.00, 0.00
82, 14212.71, 14214.01, 14230.93, 14236.41, 1563.44, 1563.30, 1568.60, 1565.65, 0.00, 0.00, 0.00
83, 14243.63, 14244.95, 14261.64, 14267.25, 1607.98, 1608.03, 1613.04, 1610.02, 0.00, 0.00, 0.00
84, 13296.14, 13297.03, 13312.27, 13317.93, 712.26, 712.51, 715.99, 713.36, 0.00, 0.00, 0.00
85, 13120.05, 13121.12, 13135.92, 13141.95, 529.58, 529.76, 532.95, 530.45, 0.00, 0.00, 0.00
86, 14042.33, 14043.91, 14060.28, 14066.20, 1404.02, 1403.98, 1408.74, 1406.17, 0.00, 0.00, 0.00
87, 14347.67, 14349.06, 14365.98, 14371.48, 1696.25, 1695.96, 1701.06, 1698.62, 0.40, -0.81, 0.42
88, 13491.83, 13493.01, 13508.54, 13514.11, 904.98, 904.82, 908.89, 906.34, 0.00, 0.00, 0.00
89, 13080.49, 13081.87, 13096.65, 13102.44, 519.07, 518.96, 522.25, 519.68, 0.00, 0.00, 0.00
90, 13960.52, 13962.44, 13978.09, 13984.06, 1321.50, 1321.08, 1325.86, 1323.22, 0.00, 0.00, 0.00
91, 14501.83, 14503.58, 14520.12, 14526.02, 1827.57, 1827.12, 1832.64, 1830.09, 0.00, 0.00, 0.00
92, 13679.20, 13680.12, 13696.10, 13701.93, 1062.33, 1061.91, 1066.09, 1063.52, 0.00, 0.00, 0.00
93, 13051.05, 13052.03, 13066.81, 13073.09, 457.52, 457.45, 460.49, 457.88, 0.00, 0.00, 0.00
94, 13777.53, 13778.98, 13794.96, 13800.93, 1126.39, 1126.28, 1130.55, 1127.91, 0.00, 0.00, 0.00
95, 14525.88, 14527.31, 14544.48, 14550.02, 1847.48, 1846.95, 1852.62, 1849.88, 0.00, 0.00, 0.00
96, 13878.91, 13879.96, 13895.92, 13902.00, 1271.17, 1270.65, 1275.19, 1272.78, 0.00, 0.00, 0.00
97, 13097.32, 13098.28, 13113.16, 13119.31, 540.33, 540.42, 543.44, 541.14, 0.00, 0.00, 0.00
98, 13643.71, 13644.87, 13660.58, 13666.71, 1040.07, 1039.83, 1043.96, 1041.32, 0.39, -0.81, 0.42
99, 14512.18, 14513.41, 14530.40, 14536.25, 1867.94, 1867.40, 1873.25, 1870.01, 0.00, 0.00, 0.00
100, 14054.96, 14056.18, 14072.30, 14078.00, 1459.52, 1459.35, 1464.35, 1461.36, 0.00, 0.00, 0.00
101, 13155.41, 13156.44, 13171.35, 13177.20, 630.16, 630.07, 633.72, 631.06, 0.00, 0.00, 0.00
102, 13485.32, 13486.44, 13502.26, 13507.83, 906.05, 905.94, 909.43, 907.03, 0.00, 0.00, 0.00
103, 14423.71, 14424.90, 14442.11, 14447.70, 1763.04, 1762.95, 1768.00, 1765.21, 0.00, 0.00, 0.00
104, 14229.81, 14230.98, 14247.56, 14253.46, 1617.28, 1617.31, 1622.11, 1619.52, 0.00, 0.00, 0.00
105, 13269.36, 13270.59, 13285.45, 13291.67, 718.23, 718.39, 721.25, 718.92, 0.00, 0.00, 0.00
106, 13328.52, 13329.82, 13344.97, 13351.05, 747.26, 747.26, 750.64, 748.11, 0.00, 0.00, 0.00
107, 14283.79, 14285.36, 14301.90, 14307.66, 1613.42, 1613.08, 1618.36, 1615.56, 0.00, 0.00, 0.00
108, 14360.53, 14362.02, 14378.52, 14384.26, 1700.36, 1700.41, 1705.68, 1702.55, 0.39, -0.82, 0.42
109, 13381.70, 13382.84, 13397.99, 13403.65, 826.75, 827.15, 830.72, 827.86, 0.00, 0.00, 0.00
110, 13182.19, 13183.37, 13198.28, 13204.20, 629.07, 629.36, 632.42, 629.78, 0.00, 0.00, 0.00
111, 14119.35, 14120.51, 14137.21, 14142.80, 1512.90, 1512.43, 1517.86, 1514.93, 0.00, 0.00, 0.00
112, 14451.88, 14453.13, 14470.09, 14475.86, 1834.27, 1833.98, 1839.57, 1836.62, 0.00, 0.00, 0.00
113, 13557.47, 13558.99, 13574.24, 13579.96, 1003.12, 1003.28, 1007.01, 1004.29, 0.00, 0.00, 0.00
114, 13099.19, 13100.65, 13115.49, 13121.41, 556.36, 556.09, 559.53, 556.94, 0.00, 0.00, 0.00
115, 13931.77, 13933.23, 13949.41, 13954.91, 1321.21, 1320.61, 1325.61, 1322.84, 0.00, 0.00, 0.00
116, 14502.86, 14504.11, 14521.03, 14526.69, 1859.26, 1859.40, 1864.67, 1861.70, 0.00, 0.00, 0.00
117, 13693.37, 13694.71, 13710.43, 13716.37, 1107.98, 1108.22, 1112.13, 1109.65, 0.00, 0.00, 0.00
118, 13046.20, 13047.43, 13062.16, 13068.19, 485.01, 485.12, 488.16, 485.99, 0.40, -0.81, 0.42
119, 13747.55, 13748.98, 13765.01, 13770.71, 1109.65, 1109.41, 1113.97, 1111.42, 0.00, 0.00, 0.00
120, 14531.00, 14532.41, 14549.69, 14554.94, 1852.33, 1851.84, 1857.16, 1854.59, 0.00, 0.00, 0.00
121, 13905.87, 13907.10, 13923.30, 13928.65, 1284.62, 1284.44, 1288.58, 1286.39, 0.00, 0.00, 0.00
122, 13066.09, 13067.23, 13082.18, 13088.09, 479.80, 479.80, 482.75, 480.65, 0.00, 0.00, 0.00
123, 13576.99, 13578.39, 13594.40, 13600.21, 942.82, 942.71, 946.51, 944.20, 0.00, 0.00, 0.00
124, 14465.47, 14467.14, 14484.04, 14489.99, 1787.07, 1786.53, 1792.01, 1789.28, 0.00, 0.00, 0.00
125, 14061.46, 14062.80, 14079.03, 14084.93, 1429.93, 1429.62, 1434.65, 1431.76, 0.00, 0.00, 0.00
126, 13142.74, 13143.99, 13158.70, 13164.91, 606.36, 606.47, 609.93, 607.32, 0.00, 0.00, 0.00
127, 13422.47, 13424.10, 13439.59, 13445.27, 847.11, 846.86, 850.93, 848.25, 0.00, 0.00, 0.00
128, 14381.96, 14383.44, 14400.38, 14405.99, 1735.12, 1734.36, 1740.22, 1737.04, 0.40, -0.80, 0.42
129, 14233.46, 14234.46, 14251.16, 14256.79, 1616.10, 1615.65, 1621.19, 1617.95, 0.00, 0.00, 0.00
130, 13262.45, 13263.55, 13278.52, 13284.71, 703.12, 703.43, 706.74, 704.10, 0.00, 0.00, 0.00
131, 13284.87, 13286.30, 13301.32, 13307.51, 693.33, 693.42, 696.91, 694.38, 0.00, 0.00, 0.00
132, 14254.47, 14255.99, 14272.71, 14278.74, 1612.99, 1612.59, 1617.84, 1614.82, 0.00, 0.00, 0.00
133, 14389.70, 14390.63, 14407.75, 14413.43, 1758.81, 1758.70, 1763.71, 1760.65, 0.00, 0.00, 0.00
134, 13447.39, 13448.51, 13463.84, 13469.56, 892.01, 892.13, 895.79, 893.20, 0.00, 0.00, 0.00
135, 13171.39, 13172.87, 13188.15, 13193.61, 612.48, 612.68, 615.92, 613.40, 0.00, 0.00, 0.00
136, 14089.27, 14090.61, 14107.26, 14112.71, 1454.96, 1455.10, 1460.11, 1456.77, 0.00, 0.00, 0.00
137, 14480.40, 14481.63, 14498.91, 14504.29, 1838.34, 1838.48, 1844.22, 1840.87, 0.00, 0.00, 0.00
138, 13581.21, 13582.39, 13597.75, 13603.76, 1002.88, 1003.06, 1006.83, 1004.62, 0.00, 0.00, 0.00
139, 13088.24, 13089.61, 13104.29, 13110.30, 519.37, 519.50, 522.54, 520.39, 0.40, -0.81, 0.42
140, 13918.74, 13920.42, 13936.33, 13942.26, 1282.97, 1282.63, 1287.35, 1284.82, 0.00, 0.00, 0.00
141, 14542.18, 14543.52, 14560.64, 14566.52, 1876.83, 1876.50, 1882.26, 1879.29, 0.00, 0.00, 0.00
142, 13765.99, 13766.77, 13782.76, 13788.81, 1187.12, 1187.48, 1191.66, 1188.80, 0.00, 0.00, 0.00
143, 13076.93, 13077.89, 13092.69, 13098.86, 520.73, 521.00, 524.28, 521.40, 0.00, 0.00, 0.00
144, 13751.44, 13752.67, 13768.92, 13774.62, 1128.58, 1128.27, 1132.70, 1129.84, 0.00, 0.00, 0.00
145, 14547.01, 14548.44, 14565.98, 14571.24, 1899.41, 1899.03, 1904.44, 1901.75, 0.00, 0.00, 0.00
146, 13941.48, 13942.55, 13958.89, 13964.65, 1345.78, 1346.00, 1350.11, 1347.54, 0.00, 0.00, 0.00
147, 13109.48, 13110.50, 13125.44, 13131.38, 562.55, 562.91, 565.74, 563.26, 0.00, 0.00, 0.00
148, 13587.94, 13588.90, 13604.88, 13610.67, 1007.01, 1006.79, 1010.50, 1008.09, 0.00, 0.00, 0.00
149, 14473.83, 14475.46, 14492.45, 14498.32, 1838.27, 1837.58, 1843.66, 1840.42, 0.39, -0.81, 0.42
150, 14111.88, 14113.29, 14129.68, 14135.33, 1514.24, 1514.80, 1519.38, 1516.74, 0.00, 0.00, 0.00
151, 13195.87, 13196.83, 13211.80, 13217.79, 653.86, 654.32, 657.61, 655.04, 0.00, 0.00, 0.00
152, 13424.10, 13425.33, 13440.57, 13446.45, 844.09, 843.91, 847.82, 844.81, 0.00, 0.00, 0.00
153, 14368.13, 14369.60, 14386.30, 14392.00, 1710.49, 1709.89, 1715.38, 1712.39, 0.00, 0.00, 0.00
154, 14260.59, 14261.66, 14278.47, 14283.97, 1624.08, 1623.65, 1628.64, 1625.91, 0.00, 0.00, 0.00
155, 13302.66, 13303.56, 13318.87, 13324.57, 729.36, 729.63, 732.71, 730.32, 0.00, 0.00, 0.00
156, 13281.03, 13282.03, 13296.94, 13303.15, 687.56, 687.32, 691.05, 688.57, 0.00, 0.00, 0.00
157, 14240.56, 14242.06, 14258.71, 14264.44, 1579.58, 1579.06, 1584.69, 1581.56, 0.00, 0.00, 0.00
158, 14397.43, 14398.43, 14415.53, 14421.28, 1737.09, 1736.89, 1742.39, 1739.30, 0.00, 0.00, 0.00
159, 13448.06, 13448.73, 13464.06, 13470.08, 855.02, 854.93, 858.51, 856.23, 0.39, -0.81, 0.42
160, 13159.70, 13160.66, 13175.15, 13181.58, 575.29, 575.07, 578.33, 575.71, 0.00, 0.00, 0.00
161, 14068.88, 14070.24, 14086.72, 14092.22, 1426.73, 1426.62, 1431.50, 1428.19, 0.00, 0.00, 0.00
162, 14486.88, 14488.27, 14505.25, 14510.84, 1837.07, 1836.93, 1842.25, 1839.28, 0.00, 0.00, 0.00
163, 13613.96, 13615.12, 13630.79, 13636.53, 1061.80, 1061.55, 1065.35, 1062.85, 0.00, 0.00, 0.00
164, 13086.97, 13088.17, 13103.11, 13108.72, 543.55, 543.73, 546.66, 544.13, 0.00, 0.00, 0.00
165, 13903.30, 13905.00, 13921.07, 13926.72, 1280.96, 1280.84, 1285.81, 1282.63, 0.00, 0.00, 0.00
166, 14551.54, 14552.86, 14570.07, 14575.64, 1887.56, 1887.40, 1893.37, 1890.09, 0.00, 0.00, 0.00
167, 13780.32, 13781.59, 13797.35, 13803.12, 1187.53, 1187.66, 1191.55, 1188.80, 0.00, 0.00, 0.00
168, 13067.46, 13068.64, 13083.12, 13088.98, 515.61, 515.68, 518.54, 516.28, 0.00, 0.00, 0.00
169, 13733.16, 13734.65, 13750.66, 13756.11, 1120.81, 1120.90, 1125.25, 1122.59, 0.39, -0.81, 0.42
170, 14545.46, 14546.87, 14564.04, 14569.74, 1888.70, 1888.45, 1894.15, 1891.16, 0.00, 0.00, 0.00
171, 13952.63, 13953.84, 13970.09, 13975.85, 1351.43, 1351.39, 1355.95, 1353.24, 0.00, 0.00, 0.00
172, 13098.46, 13099.57, 13114.51, 13120.61, 544.80, 545.05, 548.22, 545.67, 0.00, 0.00, 0.00
173, 13561.32, 13563.02, 13578.51, 13584.52, 950.80, 950.75, 955.07, 952.14, 0.00, 0.00, 0.00
174, 14470.81, 14472.37, 14489.34, 14494.90, 1800.50, 1799.96, 1805.82, 1802.74, 0.00, 0.00, 0.00
175, 14118.34, 14119.57, 14136.00, 14141.52, 1508.72, 1508.88, 1513.62, 1510.71, 0.00, 0.00, 0.00
176, 13178.05, 13179.01, 13194.12, 13200.22, 622.85, 623.26, 626.27, 623.79, 0.00, 0.00, 0.00
177, 13380.94, 13382.17, 13397.43, 13403.78, 791.01, 791.12, 794.69, 791.88, 0.00, 0.00, 0.00
178, 14378.52, 14380.06, 14396.83, 14402.64, 1724.41, 1723.83, 1729.33, 1725.89, 0.00, 0.00, 0.00
179, 14315.75, 14317.05, 14334.13, 14339.49, 1682.13, 1682.19, 1687.09, 1683.91, 0.40, -0.81, 0.43
180, 13341.15, 13342.00, 13357.31, 13363.37, 766.69, 767.02, 770.22, 767.58, 0.00, 0.00, 0.00
181, 13287.06, 13288.09, 13303.38, 13309.21, 698.18, 698.51, 701.71, 699.32, 0.00, 0.00, 0.00
182, 14220.87, 14222.44, 14239.16, 14244.57, 1577.32, 1577.03, 1582.01, 1579.33, 0.00, 0.00, 0.00
183, 14405.21, 14406.73, 14423.63, 14429.15, 1766.84, 1766.70, 1772.11, 1769.32, 0.00, 0.00, 0.00
184, 13469.32, 13470.14, 13485.46, 13491.54, 887.03, 887.27, 890.90, 887.97, 0.00, 0.00, 0.00
185, 13149.98, 13151.01, 13166.18, 13172.26, 576.92, 576.97, 580.27, 577.37, 0.00, 0.00, 0.00
186, 14053.84, 14055.11, 14071.52, 14077.42, 1411.96, 1411.47, 1416.50, 1413.52, 0.00, 0.00, 0.00
187, 14487.86, 14489.27, 14506.28, 14511.96, 1834.81, 1834.30, 1839.73, 1836.75, 0.00, 0.00, 0.00
188, 13632.75, 13634.07, 13649.65, 13655.62, 1038.71, 1038.86, 1042.91, 1040.23, 0.00, 0.00, 0.00
189, 13082.10, 13083.46, 13098.21, 13104.34, 522.20, 522.38, 525.53, 522.92, 0.00, 0.00, 0.00
190, 13869.48, 13871.02, 13887.00, 13892.91, 1261.60, 1261.51, 1266.16, 1263.07, 0.40, -0.81, 0.44
191, 14540.95, 14542.38, 14559.39, 14565.13, 1891.67, 1891.43, 1897.15, 1893.97, 0.00, 0.00, 0.00
192, 13819.08, 13820.44, 13836.33, 13842.19, 1224.92, 1224.92, 1229.30, 1226.60, 0.00, 0.00, 0.00
193, 13093.00, 13094.12, 13109.25, 13115.42, 521.67, 522.16, 525.29, 522.87, 0.00, 0.00, 0.00
194, 13731.28, 13732.31, 13748.58, 13754.41, 1106.10, 1106.25, 1110.43, 1107.71, 0.00, 0.00, 0.00
195, 14556.06, 14557.51, 14574.57, 14580.40, 1894.15, 1893.71, 1899.03, 1896.21, 0.00, 0.00, 0.00
196, 14027.49, 14028.78, 14045.23, 14051.07, 1413.88, 1413.05, 1417.79, 1415.33, 0.00, 0.00, 0.00
197, 13163.86, 13164.91, 13179.88, 13185.72, 600.66, 600.57, 603.81, 601.51, 0.00, 0.00, 0.00
198, 13583.38, 13584.72, 13600.34, 13605.93, 984.95, 985.22, 988.68, 986.27, 0.00, 0.00, 0.00
199, 14519.13, 14520.34, 14537.40, 14542.85, 1871.82, 1871.40, 1876.67, 1873.95, 0.00, 0.00, 0.00
200, 14231.06, 14231.94, 14248.52, 14254.11, 1626.45, 1626.31, 1631.48, 1628.46, 0.40, -0.81, 0.44
201, 13287.06, 13287.96, 13303.27, 13309.12, 743.44, 743.40, 746.88, 744.34, 0.00, 0.00, 0.00
202, 13460.35, 13461.65, 13477.43, 13483.29, 880.23, 880.21, 883.77, 881.24, 0.00, 0.00, 0.00
203, 14437.50, 14438.73, 14456.10, 14461.49, 1776.38, 1776.05, 1781.57, 1778.71, 0.00, 0.00, 0.00
204, 14407.44, 14408.56, 14425.82, 14431.47, 1771.73, 1771.51, 1776.94, 1774.10, 0.00, 0.00, 0.00
205, 13436.21, 13437.15, 13452.67, 13458.45, 878.18, 878.29, 881.75, 879.63, 0.00, 0.00, 0.00
206, 13345.85, 13346.74, 13361.74, 13367.71, 773.35, 773.71, 776.77, 774.67, 0.00, 0.00, 0.00
207, 14302.84, 14304.24, 14320.81, 14326.71, 1672.83, 1672.89, 1677.97, 1675.08, 0.00, 0.00, 0.00
208, 14516.47, 14517.99, 14534.96, 14540.37, 1895.00, 1894.85, 1900.26, 1897.24, 0.00, 0.00, 0.00
209, 13580.67, 13581.52, 13597.10, 13603.00, 1018.28, 1018.32, 1022.23, 1019.53, 0.00, 0.00, 0.00
210, 13242.13, 13243.05, 13258.23, 13264.24, 678.00, 678.08, 681.53, 678.84, 0.39, -0.80, 0.43
211, 14145.59, 14146.53, 14163.29, 14169.13, 1503.47, 1503.13, 1508.14, 1505.01, 0.00, 0.00, 0.00
212, 14595.22, 14596.43, 14613.55, 14619.40, 1942.23, 1941.52, 1947.17, 1944.18, 0.00, 0.00, 0.00
213, 13719.57, 13720.37, 13736.49, 13742.39, 1148.90, 1148.50, 1152.70, 1150.06, 0.00, 0.00, 0.00
214, 13130.22, 13131.40, 13146.16, 13152.39, 594.89, 594.98, 598.02, 595.72, 0.00, 0.00, 0.00
215, 13913.42, 13914.61, 13930.90, 13936.63, 1295.69, 1296.02, 1300.20, 1297.43, 0.00, 0.00, 0.00
216, 14602.73, 14603.98, 14621.48, 14627.03, 1944.24, 1944.18, 1949.70, 1946.55, 0.00, 0.00, 0.00
217, 13892.95, 13893.75, 13910.07, 13915.55, 1314.35, 1314.64, 1318.82, 1316.00, 0.00, 0.00, 0.00
218, 13128.92, 13129.79, 13144.68, 13150.54, 591.74, 592.12, 595.09, 592.50, 0.00, 0.00, 0.00
219, 13723.81, 13725.67, 13741.36, 13747.22, 1122.26, 1121.99, 1126.15, 1123.44, 0.00, 0.00, 0.00
220, 14555.81, 14557.44, 14574.54, 14579.89, 1893.37, 1893.13, 1898.62, 1895.70, 0.40, -0.82, 0.42
221, 14033.83, 14035.06, 14051.27, 14056.88, 1439.25, 1438.92, 1443.34, 1440.93, 0.00, 0.00, 0.00
222, 13156.55, 13157.33, 13172.42, 13178.39, 613.85, 613.98, 617.04, 614.58, 0.00, 0.00, 0.00
223, 13557.47, 13558.39, 13574.28, 13579.89, 974.04, 973.89, 977.96, 975.23, 0.00, 0.00, 0.00
224, 14518.87, 14520.68, 14537.75, 14543.12, 1882.20, 1881.88, 1887.45, 1884.32, 0.00, 0.00, 0.00
225, 14254.04, 14255.34, 14272.13, 14277.69, 1645.22, 1645.40, 1650.03, 1647.23, 0.00, 0.00, 0.00
226, 13281.92, 13282.93, 13297.99, 13303.96, 738.01, 738.64, 741.52, 739.42, 0.00, 0.00, 0.00
227, 13413.93, 13415.05, 13430.40, 13436.46, 831.08, 831.28, 834.93, 832.24, 0.00, 0.00, 0.00
228, 14388.00, 14389.36, 14406.19, 14412.18, 1742.45, 1742.16, 1747.46, 1744.51, 0.00, 0.00, 0.00
229, 14381.13, 14382.25, 14399.40, 14405.21, 1747.91, 1747.91, 1753.05, 1749.87, 0.00, 0.00, 0.00
230, 13421.26, 13422.29, 13437.67, 13443.70, 843.87, 843.98, 847.87, 845.07, 0.00, 0.00, 0.00
231, 13293.23, 13294.66, 13309.86, 13315.69, 714.12, 714.34, 718.03, 715.50, 0.40, -0.81, 0.43
232, 14246.33, 14247.69, 14264.39, 14270.31, 1580.38, 1580.22, 1585.72, 1582.64, 0.00, 0.00, 0.00
233, 14523.56, 14524.86, 14541.84, 14547.74, 1872.43, 1871.87, 1877.75, 1874.71, 0.00, 0.00, 0.00
234, 13603.07, 13604.39, 13619.72, 13625.71, 1052.83, 1052.90, 1056.90, 1054.22, 0.00, 0.00, 0.00
235, 13209.41, 13211.04, 13226.04, 13231.90, 663.94, 664.18, 667.27, 664.94, 0.00, 0.00, 0.00
236, 14095.93, 14097.45, 14114.05, 14119.84, 1469.31, 1469.20, 1474.08, 1471.21, 0.00, 0.00, 0.00
237, 14630.33, 14631.52, 14649.02, 14654.83, 1980.48, 1980.30, 1985.91, 1982.87, 0.00, 0.00, 0.00
238, 13812.68, 13813.76, 13829.85, 13835.93, 1248.37, 1248.48, 1252.57, 1249.89, 0.00, 0.00, 0.00
239, 13217.06, 13218.26, 13233.26, 13239.45, 661.23, 661.25, 664.67, 662.08, 0.00, 0.00, 0.00
240, 13993.26, 13994.38, 14010.94, 14016.85, 1366.38, 1365.71, 1370.88, 1367.55, 0.00, 0.00, 0.00
241, 14754.34, 14755.53, 14773.12, 14778.55, 2095.05, 2094.38, 2100.53, 2097.35, 0.40, -0.81, 0.42
242, 14048.52, 14049.48, 14065.82, 14071.63, 1474.97, 1475.19, 1479.53, 1476.73, 0.00, 0.00, 0.00
243, 13273.83, 13275.13, 13290.10, 13296.09, 751.78, 752.34, 755.18, 752.78, 0.00, 0.00, 0.00
244, 13879.32, 13880.99, 13896.93, 13902.52, 1293.67, 1293.81, 1298.08, 1295.46, 0.00, 0.00, 0.00
245, 14791.67, 14793.10, 14810.62, 14816.26, 2133.72, 2133.47, 2139.42, 2136.25, 0.00, 0.00, 0.00
246, 14343.94, 14344.99, 14361.87, 14367.43, 1735.86, 1735.99, 1740.84, 1737.83, 0.00, 0.00, 0.00
247, 13463.93, 13465.00, 13480.74, 13486.39, 908.13, 908.33, 911.71, 909.07, 0.00, 0.00, 0.00
248, 13870.62, 13872.21, 13888.37, 13893.98, 1257.58, 1257.60, 1262.00, 1259.01, 0.00, 0.00, 0.00
249, 14818.16, 14819.70, 14837.18, 14842.92, 2137.39, 2137.30, 2143.38, 2140.05, 0.00, 0.00, 0.00
250, 14587.55, 14589.07, 14605.99, 14611.85, 1938.63, 1938.25, 1943.80, 1940.87, 0.00, 0.00, 0.00
251, 13643.35, 13644.53, 13660.11, 13665.81, 1051.96, 1052.14, 1055.61, 1053.30, 0.40, -0.82, 0.42
252, 13761.61, 13762.66, 13778.17, 13784.30, 1158.63, 1158.63, 1162.60, 1160.03, 0.00, 0.00, 0.00
253, 14746.74, 14748.04, 14765.70, 14771.22, 2118.74, 2118.43, 2124.04, 2121.25, 0.00, 0.00, 0.00
254, 14785.48, 14786.68, 14804.36, 14809.68, 2174.22, 2174.24, 2179.81, 2176.97, 0.00, 0.00, 0.00
255, 13850.01, 13851.29, 13866.98, 13873.01, 1311.33, 1311.22, 1315.27, 1312.45, 0.00, 0.00, 0.00
0, 13663.00, 13664.16, 13679.69, 13685.82, 1120.67, 1120.54, 1124.36, 1121.52, 0.00, 0.00, 0.00
1, 14617.86, 14619.38, 14636.73, 14642.05, 2002.56, 2002.05, 2007.59, 2004.91, 0.00, 0.00, 0.00
2, 14953.79, 14955.24, 14972.85, 14978.13, 2316.33, 2316.04, 2322.06, 2319.22, 0.00, 0.00, 0.00
3, 14066.58, 14067.94, 14084.04, 14089.62, 1469.45, 1469.85, 1473.87, 1471.50, 0.00, 0.00, 0.00
4, 13629.89, 13631.19, 13646.92, 13652.89, 1040.43, 1040.85, 1044.21, 1041.64, 0.00, 0.00, 0.00
5, 14499.31, 14500.87, 14517.88, 14523.76, 1836.64, 1836.42, 1842.16, 1839.06, 0.40, -0.81, 0.42
6, 15072.18, 15073.86, 15091.79, 15097.13, 2412.42, 2412.18, 2418.77, 2415.75, 0.00, 0.00, 0.00
7, 14252.77, 14254.15, 14270.78, 14276.24, 1684.58, 1684.54, 1689.55, 1686.64, 0.00, 0.00, 0.00
8, 13611.52, 13612.95, 13628.44, 13634.27, 1068.73, 1068.88, 1072.73, 1070.05, 0.00, 0.00, 0.00
9, 14357.26, 14358.92, 14375.66, 14381.25, 1744.62, 1744.46, 1749.74, 1746.99, 0.00, 0.00, 0.00
10, 15125.63, 15127.01, 15145.30, 15150.35, 2481.33, 2481.20, 2487.50, 2484.42, 0.00, 0.00, 0.00
11, 14447.92, 14449.08, 14466.09, 14471.37, 1860.05, 1860.25, 1865.12, 1862.03, 0.00, 0.00, 0.00
12, 13647.89, 13648.82, 13664.72, 13670.50, 1094.65, 1094.88, 1098.68, 1096.04, 0.00, 0.00, 0.00
13, 14249.93, 14250.76, 14267.70, 14273.26, 1629.00, 1628.68, 1633.67, 1630.81, 0.00, 0.00, 0.00
14, 15132.91, 15134.16, 15152.45, 15157.81, 2469.49, 2468.88, 2475.37, 2472.17, 0.00, 0.00, 0.00
15, 14696.83, 14698.04, 14715.43, 14721.10, 2098.94, 2098.83, 2104.15, 2101.24, 0.40, -0.82, 0.42
16, 13729.29, 13730.36, 13745.94, 13752.00, 1190.14, 1190.45, 1194.23, 1191.71, 0.00, 0.00, 0.00
17, 14041.54, 14042.91, 14059.16, 14064.83, 1464.08, 1464.20, 1468.71, 1465.94, 0.00, 0.00, 0.00
18, 14979.45, 14981.05, 14998.85, 15004.19, 2337.28, 2337.19, 2343.60, 2340.47, 0.00, 0.00, 0.00
19, 14789.12, 14790.84, 14808.14, 14813.64, 2173.66, 2173.68, 2179.68, 2176.90, 0.00, 0.00, 0.00
20, 13818.47, 13820.02, 13835.66, 13841.45, 1257.93, 1258.20, 1262.36, 1259.70, 0.00, 0.00, 0.00
21, 13874.38, 13875.94, 13891.74, 13897.49, 1289.54, 1289.23, 1293.58, 1290.79, 0.00, 0.00, 0.00
22, 14827.25, 14828.75, 14846.43, 14851.91, 2201.22, 2200.57, 2206.77, 2203.93, 0.00, 0.00, 0.00
23, 14892.70, 14894.08, 14911.59, 14917.17, 2296.60, 2296.37, 2302.12, 2299.28, 0.00, 0.00, 0.00
24, 13899.39, 13900.57, 13916.37, 13921.96, 1372.37, 1372.78, 1376.93, 1373.92, 0.00, 0.00, 0.00
25, 13661.48, 13662.88, 13678.64, 13684.12, 1136.36, 1136.79, 1140.43, 1137.46, 0.00, 0.00, 0.00
26, 14607.89, 14609.61, 14626.94, 14632.21, 2000.68, 2000.53, 2005.87, 2002.69, 0.39, -0.82, 0.42
27, 14952.15, 14953.61, 14971.24, 14976.29, 2336.90, 2336.90, 2342.78, 2339.62, 0.00, 0.00, 0.00
28, 14014.23, 14015.08, 14031.55, 14036.87, 1469.20, 1469.49, 1473.63, 1471.12, 0.00, 0.00, 0.00
29, 13534.83, 13535.79, 13551.37, 13557.18, 1015.75, 1015.95, 1019.60, 1017.12, 0.00, 0.00, 0.00
30, 14374.88, 14376.17, 14392.69, 14398.79, 1807.36, 1807.12, 1812.30, 1809.55, 0.00, 0.00, 0.00
31, 14948.26, 14949.36, 14966.88, 14972.85, 2350.04, 2349.75, 2355.87, 2352.74, 0.00, 0.00, 0.00
32, 14118.32, 14119.24, 14135.87, 14141.34, 1589.19, 1589.39, 1593.70, 1591.20, 0.00, 0.00, 0.00
33, 13430.25, 13431.27, 13446.54, 13451.97, 939.42, 939.69, 942.93, 940.56, 0.00, 0.00, 0.00
34, 14139.29, 14140.85, 14157.21, 14163.03, 1575.66, 1575.53, 1580.45, 1577.63, 0.00, 0.00, 0.00
35, 14913.80, 14915.07, 14932.91, 14938.59, 2304.38, 2304.44, 2310.61, 2307.35, 0.00, 0.00, 0.00
36, 14258.49, 14259.85, 14276.28, 14281.96, 1701.46, 1701.57, 1706.69, 1703.61, 0.40, -0.81, 0.42
37, 13418.56, 13420.05, 13435.10, 13440.95, 902.63, 902.68, 906.39, 903.75, 0.00, 0.00, 0.00
38, 13935.13, 13936.67, 13952.92, 13958.62, 1362.07, 1362.23, 1367.06, 1364.15, 0.00, 0.00, 0.00
39, 14829.38, 14830.81, 14848.55, 14853.94, 2192.84, 2193.00, 2198.76, 2195.59, 0.00, 0.00, 0.00
40, 14416.54, 14417.46, 14434.58, 14439.96, 1816.86, 1817.49, 1821.87, 1819.36, 0.00, 0.00, 0.00
41, 13452.87, 13453.92, 13469.43, 13475.31, 933.16, 933.99, 936.85, 934.33, 0.00, 0.00, 0.00
42, 13724.62, 13726.00, 13742.05, 13747.78, 1161.31, 1161.40, 1165.53, 1162.38, 0.00, 0.00, 0.00
43, 14713.46, 14715.23, 14732.79, 14738.11, 2085.04, 2084.68, 2090.72, 2087.45, 0.00, 0.00, 0.00
44, 14540.12, 14541.62, 14558.94, 14564.51, 1972.21, 1972.16, 1977.32, 1974.24, 0.00, 0.00, 0.00
45, 13577.66, 13578.77, 13594.91, 13600.57, 1093.63, 1093.42, 1097.02, 1094.50, 0.00, 0.00, 0.00
46, 13559.31, 13560.51, 13576.29, 13581.95, 1044.56, 1044.54, 1048.43, 1045.68, 0.39, -0.81, 0.43
47, 14568.55, 14570.21, 14587.22, 14592.69, 1974.96, 1974.84, 1980.50, 1977.30, 0.00, 0.00, 0.00
48, 14674.08, 14675.69, 14692.94, 14698.75, 2097.38, 2097.22, 2103.05, 2099.92, 0.00, 0.00, 0.00
49, 13684.83, 13686.20, 13701.89, 13707.74, 1186.83, 1187.08, 1190.99, 1188.20, 0.00, 0.00, 0.00
50, 13442.03, 13443.52, 13458.68, 13464.56, 938.13, 938.71, 941.88, 939.31, 0.00, 0.00, 0.00
51, 14406.21, 14407.55, 14424.43, 14430.17, 1824.89, 1824.64, 1829.96, 1827.05, 0.00, 0.00, 0.00
52, 14784.99, 14786.17, 14804.01, 14809.46, 2200.26, 2199.70, 2205.80, 2202.74, 0.00, 0.00, 0.00
53, 13861.05, 13861.97, 13878.22, 13883.65, 1360.42, 1360.13, 1364.22, 1361.65, 0.00, 0.00, 0.00
54, 13356.17, 13357.47, 13372.56, 13378.23, 874.71, 874.82, 878.07, 875.70, 0.00, 0.00, 0.00
55, 14194.70, 14196.00, 14212.65, 14218.21, 1638.11, 1638.18, 1643.05, 1640.31, 0.00, 0.00, 0.00
56, 14800.16, 14801.53, 14818.87, 14824.62, 2206.52, 2206.32, 2212.24, 2209.27, 0.39, -0.82, 0.42
57, 14026.26, 14027.62, 14043.69, 14049.59, 1498.17, 1497.99, 1502.55, 1499.87, 0.00, 0.00, 0.00
58, 13339.74, 13340.97, 13355.93, 13362.12, 839.49, 839.80, 843.13, 840.29, 0.00, 0.00, 0.00
59, 14023.01, 14024.53, 14040.92, 14046.57, 1454.65, 1454.90, 1459.17, 1456.28, 0.00, 0.00, 0.00
60, 14808.43, 14810.22, 14827.54, 14832.82, 2187.32, 2187.27, 2193.02, 2189.76, 0.00, 0.00, 0.00
61, 14202.66, 14204.20, 14220.38, 14226.08, 1632.30, 1632.77, 1637.06, 1634.31, 0.00, 0.00, 0.00
62, 13326.98, 13328.30, 13343.37, 13349.00, 810.72, 811.26, 814.25, 811.84, 0.00, 0.00, 0.00
63, 13801.78, 13802.89, 13818.81, 13824.46, 1249.57, 1249.86, 1254.11, 1251.27, 0.00, 0.00, 0.00
64, 14726.89, 14728.21, 14745.67, 14751.14, 2123.04, 2122.99, 2128.76, 2125.56, 0.00, 0.00, 0.00
65, 14342.58, 14343.63, 14360.66, 14366.11, 1784.56, 1784.79, 1789.48, 1786.73, 0.00, 0.00, 0.00
66, 13370.79, 13371.35, 13386.88, 13392.65, 860.39, 860.68, 863.98, 861.32, 0.00, 0.00, 0.00
67, 13627.03, 13628.17, 13643.88, 13649.47, 1090.63, 1090.54, 1094.59, 1091.55, 0.40, -0.81, 0.43
68, 14591.87, 14593.25, 14610.35, 14615.98, 2005.26, 2004.88, 2010.38, 2007.43, 0.00, 0.00, 0.00
69, 14457.76, 14459.19, 14476.15, 14481.40, 1912.62, 1912.59, 1917.94, 1914.72, 0.00, 0.00, 0.00
70, 13476.04, 13477.16, 13492.34, 13498.42, 993.89, 994.38, 998.03, 995.35, 0.00, 0.00, 0.00
71, 13442.72, 13443.81, 13459.06, 13465.27, 941.30, 941.37, 945.10, 942.26, 0.00, 0.00, 0.00
72, 14426.06, 14427.40, 14444.66, 14450.31, 1862.93, 1862.57, 1868.29, 1865.05, 0.00, 0.00, 0.00
73, 14580.78, 14582.19, 14599.33, 14604.92, 2024.87, 2024.76, 2030.19, 2027.15, 0.00, 0.00, 0.00
74, 13610.25, 13611.63, 13627.08, 13632.71, 1118.30, 1118.64, 1122.39, 1119.78, 0.00, 0.00, 0.00
75, 13359.26, 13360.55, 13375.75, 13381.85, 853.48, 853.77, 857.21, 854.69, 0.00, 0.00, 0.00
76, 14267.03, 14268.46, 14285.13, 14290.65, 1688.85, 1688.41, 1693.73, 1690.44, 0.00, 0.00, 0.00
77, 14689.10, 14690.66, 14707.65, 14713.13, 2107.95, 2107.75, 2113.72, 2110.27, 0.40, -0.81, 0.42
78, 13799.63, 13801.17, 13816.86, 13822.59, 1280.06, 1280.44, 1284.51, 1281.63, 0.00, 0.00, 0.00
79, 13268.84, 13270.03, 13285.27, 13291.02, 755.40, 756.09, 758.77, 756.43, 0.00, 0.00, 0.00
80, 14104.15, 14105.54, 14121.85, 14127.75, 1532.55, 1533.08, 1537.38, 1534.78, 0.00, 0.00, 0.00
81, 14755.53, 14756.93, 14774.30, 14779.84, 2160.90, 2161.03, 2166.62, 2163.20, 0.00, 0.00, 0.00
82, 13982.87, 13984.06, 14000.55, 14006.03, 1462.21, 1462.52, 1466.59, 1463.73, 0.00, 0.00, 0.00
83, 13257.47, 13258.81, 13273.78, 13279.42, 774.26, 774.80, 777.75, 775.00, 0.00, 0.00, 0.00
84, 13931.95, 13933.65, 13949.77, 13954.93, 1382.59, 1382.61, 1387.04, 1383.86, 0.00, 0.00, 0.00
85, 14749.69, 14751.06, 14768.53, 14773.97, 2167.00, 2166.67, 2172.68, 2169.55, 0.00, 0.00, 0.00
86, 14157.01, 14158.22, 14174.56, 14180.59, 1638.67, 1638.92, 1643.39, 1640.60, 0.00, 0.00, 0.00
87, 13277.20, 13278.30, 13293.32, 13299.38, 823.68, 824.13, 827.31, 824.33, 0.40, -0.82, 0.42
88, 13755.33, 13756.78, 13772.81, 13778.62, 1252.77, 1252.61, 1257.35, 1254.13, 0.00, 0.00, 0.00
89, 14686.39, 14688.09, 14705.37, 14711.27, 2117.72, 2117.40, 2123.06, 2120.20, 0.00, 0.00, 0.00
90, 14340.28, 14341.50, 14358.16, 14363.99, 1805.24, 1805.10, 1809.66, 1807.12, 0.00, 0.00, 0.00
91, 13391.96, 13393.08, 13408.32, 13413.88, 913.38, 913.65, 916.91, 914.50, 0.00, 0.00, 0.00
92, 13615.03, 13616.44, 13632.06, 13637.76, 1084.84, 1084.91, 1088.91, 1086.41, 0.00, 0.00, 0.00
93, 14610.31, 14611.83, 14629.06, 14634.83, 2000.55, 2000.30, 2006.11, 2003.03, 0.00, 0.00, 0.00
94, 14523.81, 14525.19, 14542.40, 14548.21, 1953.39, 1953.43, 1958.75, 1956.05, 0.00, 0.00, 0.00
95, 13549.20, 13550.45, 13566.08, 13572.05, 1052.12, 1052.70, 1055.87, 1053.28, 0.00, 0.00, 0.00
96, 13508.79, 13510.18, 13525.67, 13531.39, 993.40, 993.74, 997.38, 994.54, 0.00, 0.00, 0.00
97, 14495.69, 14496.80, 14513.97, 14519.56, 1909.82, 1909.51, 1915.28, 1912.12, 0.40, -0.81, 0.42
98, 14694.33, 14695.78, 14712.66, 14718.49, 2119.59, 2119.59, 2125.45, 2122.10, 0.00, 0.00, 0.00
99, 13740.47, 13741.81, 13757.61, 13763.02, 1242.02, 1242.31, 1246.13, 1243.23, 0.00, 0.00, 0.00
100, 13409.12, 13410.67, 13426.20, 13431.57, 933.54, 934.01, 937.19, 934.35, 0.00, 0.00, 0.00
101, 14305.79, 14307.15, 14324.29, 14329.46, 1760.85, 1760.87, 1765.54, 1762.41, 0.00, 0.00, 0.00
102, 14787.38, 14788.65, 14806.64, 14811.88, 2215.75, 2215.57, 2221.36, 2218.12, 0.00, 0.00, 0.00
103, 13942.86, 13944.11, 13960.27, 13966.00, 1422.04, 1422.33, 1426.47, 1423.98, 0.00, 0.00, 0.00
104, 13378.77, 13379.71, 13394.93, 13400.97, 861.41, 861.95, 865.10, 862.67, 0.00, 0.00, 0.00
105, 14217.03, 14218.32, 14235.02, 14240.50, 1628.50, 1628.19, 1633.20, 1630.31, 0.00, 0.00, 0.00
106, 14849.16, 14850.70, 14867.96, 14873.32, 2251.63, 2251.07, 2257.15, 2254.20, 0.00, 0.00, 0.00
107, 14095.55, 14097.13, 14113.03, 14118.61, 1577.97, 1578.10, 1582.57, 1580.00, 0.40, -0.81, 0.43
108, 13350.56, 13352.02, 13367.01, 13373.00, 863.43, 863.78, 866.98, 864.48, 0.00, 0.00, 0.00
109, 14001.11, 14002.65, 14019.15, 14024.91, 1450.02, 1449.87, 1454.65, 1451.50, 0.00, 0.00, 0.00
110, 14857.58, 14858.97, 14876.85, 14882.06, 2259.31, 2259.14, 2265.15, 2261.84, 0.00, 0.00, 0.00
111, 14302.63, 14303.91, 14320.63, 14326.15, 1756.20, 1756.60, 1761.25, 1758.32, 0.00, 0.00, 0.00
112, 13415.36, 13416.54, 13431.97, 13437.49, 917.00, 917.16, 920.53, 917.90, 0.00, 0.00, 0.00
113, 13836.58, 13837.90, 13854.24, 13859.36, 1289.52, 1289.83, 1293.83, 1290.99, 0.00, 0.00, 0.00
114, 14798.55, 14800.12, 14817.73, 14822.98, 2180.99, 2180.84, 2186.51, 2182.98, 0.00, 0.00, 0.00
115, 14471.21, 14472.37, 14489.36, 14495.13, 1883.76, 1884.01, 1888.81, 1885.95, 0.00, 0.00, 0.00
116, 13505.93, 13507.27, 13522.69, 13528.57, 991.99, 992.78, 995.84, 993.29, 0.00, 0.00, 0.00
117, 13681.28, 13682.87, 13698.62, 13704.32, 1151.72, 1152.21, 1155.79, 1153.19, 0.00, 0.00, 0.00
118, 14668.15, 14669.74, 14687.31, 14692.29, 2070.06, 2069.86, 2075.47, 2072.57, 0.40, -0.81, 0.43
119, 14631.21, 14632.77, 14650.32, 14655.55, 2054.37, 2053.92, 2059.33, 2056.76, 0.00, 0.00, 0.00
120, 13635.08, 13636.49, 13652.11, 13658.06, 1142.58, 1142.44, 1146.15, 1143.54, 0.00, 0.00, 0.00
121, 13537.02, 13538.54, 13553.49, 13559.86, 1028.22, 1028.49, 1031.96, 1029.25, 0.00, 0.00, 0.00
122, 14522.46, 14523.89, 14540.68, 14546.63, 1940.02, 1939.77, 1945.09, 1942.32, 0.00, 0.00, 0.00
123, 14744.37, 14745.45, 14762.90, 14768.53, 2179.27, 2179.38, 2184.95, 2181.87, 0.00, 0.00, 0.00
124, 13786.96, 13788.25, 13804.08, 13809.71, 1297.07, 1297.56, 1301.63, 1298.66, 0.00, 0.00, 0.00
125, 13425.93, 13426.87, 13442.16, 13447.95, 945.32, 945.72, 949.41, 946.51, 0.00, 0.00, 0.00
126, 14334.44, 14335.58, 14352.34, 14358.27, 1781.46, 1781.41, 1786.49, 1783.58, 0.00, 0.00, 0.00
127, 14822.83, 14824.32, 14841.92, 14847.41, 2229.61, 2229.59, 2235.49, 2232.38, 0.00, 0.00, 0.00
128, 13951.91, 13953.25, 13969.30, 13974.82, 1423.05, 1423.45, 1427.81, 1424.81, 0.39, -0.81, 0.43
129, 13361.63, 13362.86, 13378.21, 13384.13, 858.49, 858.93, 862.29, 859.45, 0.00, 0.00, 0.00
130, 14164.59, 14165.48, 14182.38, 14188.15, 1598.28, 1598.33, 1603.20, 1600.18, 0.00, 0.00, 0.00
131, 14865.43, 14866.59, 14884.45, 14889.68, 2272.86, 2272.68, 2278.47, 2275.27, 0.00, 0.00, 0.00
132, 14145.05, 14146.22, 14162.53, 14168.08, 1613.75, 1613.66, 1618.02, 1615.20, 0.00, 0.00, 0.00
133, 13359.44, 13360.15, 13375.75, 13381.52, 864.43, 864.43, 867.85, 865.15, 0.00, 0.00, 0.00
134, 13969.04, 13970.09, 13986.51, 13992.28, 1398.28, 1398.12, 1402.59, 1399.62, 0.00, 0.00, 0.00
135, 14893.28, 14894.53, 14912.35, 14917.84, 2263.02, 2262.67, 2268.61, 2265.17, 0.00, 0.00, 0.00
136, 14327.51, 14328.72, 14345.75, 14351.12, 1799.16, 1799.16, 1803.81, 1801.08, 0.00, 0.00, 0.00
137, 13412.88, 13414.42, 13429.80, 13435.43, 945.08, 945.57, 948.70, 946.10, 0.00, 0.00, 0.00
138, 13810.07, 13811.50, 13827.44, 13833.25, 1277.65, 1277.63, 1281.81, 1279.01, 0.40, -0.81, 0.43
139, 14790.35, 14791.62, 14809.46, 14814.85, 2179.76, 2179.18, 2184.84, 2182.18, 0.00, 0.00, 0.00
140, 14493.18, 14494.30, 14511.87, 14516.97, 1910.63, 1910.34, 1915.37, 1912.53, 0.00, 0.00, 0.00
141, 13505.77, 13506.78, 13522.25, 13527.83, 998.94, 999.19, 1002.52, 999.99, 0.00, 0.00, 0.00
142, 13659.91, 13661.07, 13677.01, 13683.04, 1153.42, 1153.55, 1157.33, 1154.76, 0.00, 0.00, 0.00
143, 14652.64, 14654.09, 14671.48, 14677.21, 2067.34, 2067.18, 2073.01, 2069.75, 0.00, 0.00, 0.00
144, 14638.02, 14639.05, 14656.66, 14662.12, 2077.80, 2077.62, 2082.94, 2080.05, 0.00, 0.00, 0.00
145, 13639.91, 13640.67, 13656.42, 13662.17, 1157.19, 1157.55, 1160.86, 1158.47, 0.00, 0.00, 0.00
146, 13492.03, 13493.48, 13508.86, 13514.60, 1002.90, 1003.33, 1006.92, 1004.53, 0.00, 0.00, 0.00
147, 14468.82, 14470.05, 14487.26, 14492.56, 1896.41, 1896.41, 1901.89, 1898.76, 0.00, 0.00, 0.00
148, 14768.04, 14768.94, 14786.55, 14792.00, 2178.02, 2178.16, 2183.74, 2180.68, 0.40, -0.81, 0.43
149, 13823.93, 13825.02, 13840.94, 13846.59, 1311.27, 1311.78, 1315.38, 1312.92, 0.00, 0.00, 0.00
150, 13403.85, 13405.53, 13420.68, 13426.38, 912.49, 912.87, 915.86, 913.67, 0.00, 0.00, 0.00
151, 14313.79, 14315.89, 14332.47, 14337.88, 1735.01, 1735.14, 1740.06, 1737.09, 0.00, 0.00, 0.00
152, 14829.80, 14831.57, 14849.20, 14854.61, 2231.17, 2231.08, 2237.10, 2233.61, 0.00, 0.00, 0.00
153, 13973.10, 13974.35, 13990.60, 13996.39, 1443.79, 1443.99, 1448.12, 1445.55, 0.00, 0.00, 0.00
154, 13342.74, 13343.86, 13359.08, 13364.84, 853.79, 854.04, 857.28, 854.60, 0.00, 0.00, 0.00
155, 14110.21, 14111.75, 14128.20, 14133.95, 1569.11, 1569.47, 1573.99, 1570.79, 0.00, 0.00, 0.00
156, 14838.34, 14839.90, 14857.63, 14862.84, 2264.92, 2265.42, 2271.12, 2267.99, 0.00, 0.00, 0.00
157, 14149.12, 14149.95, 14166.78, 14172.23, 1627.97, 1628.35, 1632.75, 1630.16, 0.00, 0.00, 0.00
158, 13337.08, 13338.45, 13353.67, 13359.57, 850.19, 850.89, 853.93, 851.02, 0.40, -0.81, 0.43
159, 13922.12, 13923.97, 13939.69, 13945.48, 1372.08, 1372.20, 1376.62, 1373.49, 0.00, 0.00, 0.00
160, 14823.43, 14824.84, 14842.43, 14847.84, 2226.57, 2226.30, 2231.89, 2228.80, 0.00, 0.00, 0.00
161, 14327.22, 14328.61, 14345.39, 14350.78, 1789.21, 1789.21, 1793.59, 1790.78, 0.00, 0.00, 0.00
162, 13397.48, 13398.73, 13414.18, 13419.67, 923.06, 923.55, 926.73, 924.13, 0.00, 0.00, 0.00
163, 13772.00, 13773.57, 13789.71, 13795.12, 1252.23, 1252.32, 1256.46, 1253.73, 0.00, 0.00, 0.00
164, 14753.04, 14755.15, 14772.56, 14777.56, 2148.00, 2147.51, 2153.32, 2150.08, 0.00, 0.00, 0.00
165, 14537.60, 14539.27, 14556.37, 14561.60, 1976.79, 1976.50, 1981.59, 1978.51, 0.00, 0.00, 0.00
166, 13535.03, 13535.97, 13551.50, 13557.45, 1049.17, 1049.35, 1052.79, 1050.17, 0.00, 0.00, 0.00
167, 13633.45, 13634.85, 13650.30, 13655.95, 1117.32, 1117.03, 1121.07, 1118.32, 0.00, 0.00, 0.00
168, 14617.41, 14619.00, 14636.39, 14641.44, 2028.91, 2028.51, 2034.23, 2031.06, 0.00, 0.00, 0.00
169, 14645.18, 14646.43, 14664.08, 14669.18, 2067.67, 2067.74, 2072.90, 2070.08, 0.40, -0.81, 0.42
170, 13654.88, 13656.02, 13671.85, 13677.26, 1143.94, 1144.54, 1147.34, 1145.42, 0.00, 0.00, 0.00
171, 13493.21, 13494.40, 13510.13, 13515.83, 972.77, 973.37, 976.55, 974.20, 0.00, 0.00, 0.00
172, 14462.94, 14464.57, 14481.61, 14487.35, 1871.20, 1871.38, 1876.34, 1873.19, 0.00, 0.00, 0.00
173, 14756.75, 14758.19, 14775.31, 14780.96, 2161.21, 2161.37, 2167.11, 2163.78, 0.00, 0.00, 0.00
174, 13815.46, 13816.51, 13832.09, 13838.03, 1302.97, 1303.29, 1307.49, 1304.60, 0.00, 0.00, 0.00
175, 13383.00, 13384.18, 13399.27, 13405.30, 896.75, 897.06, 900.40, 897.76, 0.00, 0.00, 0.00
176, 14266.87, 14268.21, 14284.91, 14290.61, 1706.00, 1706.13, 1711.16, 1707.96, 0.00, 0.00, 0.00
177, 14838.61, 14839.81, 14857.32, 14863.08, 2263.58, 2263.65, 2269.33, 2266.22, 0.00, 0.00, 0.00
178, 13996.13, 13997.22, 14013.38, 14018.97, 1497.70, 1497.92, 1502.28, 1499.31, 0.00, 0.00, 0.00
179, 13344.19, 13345.09, 13360.87, 13366.14, 879.81, 880.17, 883.65, 880.59, 0.39, -0.81, 0.42
180, 14108.40, 14109.69, 14126.46, 14131.80, 1565.54, 1565.54, 1570.17, 1567.28, 0.00, 0.00, 0.00
181, 14862.77, 14863.75, 14881.61, 14886.89, 2283.54, 2283.16, 2289.02, 2285.98, 0.00, 0.00, 0.00
182, 14168.82, 14169.53, 14186.41, 14191.73, 1677.57, 1677.52, 1682.21, 1679.33, 0.00, 0.00, 0.00
183, 13362.07, 13363.46, 13378.57, 13384.00, 914.61, 915.26, 918.50, 915.80, 0.00, 0.00, 0.00
184, 13957.61, 13959.18, 13975.20, 13980.75, 1429.51, 1429.91, 1434.07, 1431.16, 0.00, 0.00, 0.00
185, 14866.35, 14867.75, 14885.55, 14890.64, 2275.16, 2274.87, 2280.70, 2277.67, 0.00, 0.00, 0.00
186, 14394.41, 14395.51, 14412.49, 14417.97, 1854.50, 1854.68, 1859.51, 1856.67, 0.00, 0.00, 0.00
187, 13465.32, 13466.21, 13481.92, 13487.56, 993.38, 993.74, 997.33, 994.67, 0.00, 0.00, 0.00
188, 13794.07, 13795.25, 13811.57, 13816.86, 1272.37, 1272.84, 1276.91, 1274.03, 0.00, 0.00, 0.00
189, 14781.05, 14782.37, 14800.23, 14805.30, 2201.45, 2201.60, 2207.10, 2204.13, 0.40, -0.82, 0.42
190, 14563.82, 14565.09, 14582.34, 14587.66, 2023.48, 2023.82, 2028.55, 2025.65, 0.00, 0.00, 0.00
191, 13558.30, 13559.19, 13575.04, 13580.81, 1091.35, 1091.97, 1094.90, 1092.40, 0.00, 0.00, 0.00
192, 13612.19, 13613.06, 13629.04, 13634.85, 1124.83, 1125.48, 1128.85, 1125.88, 0.00, 0.00, 0.00
193, 14630.04, 14631.21, 14648.59, 14653.78, 2069.75, 2069.95, 2075.36, 2072.14, 0.00, 0.00, 0.00
194, 14740.53, 14741.87, 14759.17, 14764.51, 2183.65, 2183.27, 2189.04, 2185.87, 0.00, 0.00, 0.00
195, 13756.20, 13757.34, 13773.23, 13779.04, 1264.42, 1264.35, 1268.28, 1265.71, 0.00, 0.00, 0.00
196, 13535.12, 13536.66, 13551.88, 13557.99, 1043.87, 1044.18, 1048.03, 1045.26, 0.00, 0.00, 0.00
197, 14480.76, 14482.30, 14499.31, 14504.72, 1919.77, 1919.43, 1925.27, 1922.14, 0.00, 0.00, 0.00
198, 14807.25, 14808.46, 14826.27, 14831.37, 2246.60, 2246.37, 2252.01, 2249.03, 0.00, 0.00, 0.00
199, 13883.36, 13884.41, 13900.50, 13906.16, 1400.47, 1401.14, 1404.78, 1402.15, 0.40, -0.81, 0.42
200, 13415.05, 13416.25, 13432.03, 13437.31, 954.53, 955.40, 958.40, 955.83, 0.00, 0.00, 0.00
201, 14300.71, 14302.37, 14319.20, 14324.36, 1758.52, 1758.95, 1763.78, 1760.94, 0.00, 0.00, 0.00
202, 14890.31, 14892.16, 14909.71, 14915.07, 2320.65, 2320.85, 2326.66, 2323.49, 0.00, 0.00, 0.00
203, 14057.12, 14058.55, 14074.87, 14080.44, 1563.59, 1564.04, 1568.22, 1565.38, 0.00, 0.00, 0.00
204, 13385.12, 13386.26, 13401.28, 13407.18, 930.59, 931.31, 934.50, 931.69, 0.00, 0.00, 0.00
205, 14125.32, 14127.04, 14143.11, 14148.52, 1594.93, 1594.93, 1599.74, 1596.67, 0.00, 0.00, 0.00
206, 14881.25, 14882.60, 14900.41, 14905.62, 2305.83, 2305.43, 2311.73, 2308.33, 0.00, 0.00, 0.00
207, 14219.20, 14220.20, 14237.05, 14242.44, 1693.70, 1694.02, 1698.46, 1695.45, 0.00, 0.00, 0.00
208, 13383.00, 13384.02, 13399.20, 13404.85, 906.43, 907.10, 910.01, 907.28, 0.00, 0.00, 0.00
209, 13914.70, 13915.77, 13931.86, 13937.65, 1389.05, 1389.41, 1393.77, 1390.90, 0.00, 0.00, 0.00
210, 14806.67, 14807.78, 14825.58, 14831.14, 2236.72, 2236.85, 2242.39, 2239.15, 0.40, -0.81, 0.42
211, 14367.83, 14369.11, 14385.78, 14391.42, 1866.10, 1866.35, 1870.82, 1867.85, 0.00, 0.00, 0.00
212, 13423.59, 13424.61, 13439.86, 13445.49, 975.39, 976.08, 979.27, 976.41, 0.00, 0.00, 0.00
213, 13711.59, 13712.79, 13728.75, 13734.23, 1223.47, 1223.98, 1227.54, 1225.08, 0.00, 0.00, 0.00
214, 14686.68, 14688.25, 14705.75, 14711.05, 2131.69, 2131.93, 2137.09, 2134.44, 0.00, 0.00, 0.00
215, 14512.41, 14513.97, 14530.78, 14536.37, 1976.59, 1976.70, 1981.71, 1978.82, 0.00, 0.00, 0.00
216, 13523.16, 13523.86, 13539.30, 13545.18, 1052.05, 1052.19, 1055.81, 1053.08, 0.00, 0.00, 0.00
217, 13566.97, 13567.71, 13583.51, 13589.26, 1091.46, 1091.59, 1095.35, 1092.33, 0.00, 0.00, 0.00
218, 14575.08, 14576.26, 14593.63, 14598.80, 2030.05, 2029.90, 2035.08, 2032.04, 0.00, 0.00, 0.00
219, 14695.56, 14696.63, 14714.13, 14719.20, 2160.50, 2160.45, 2165.95, 2162.87, 0.00, 0.00, 0.00
220, 13692.97, 13693.86, 13709.91, 13715.43, 1230.78, 1231.22, 1234.96, 1232.16, 0.40, -0.81, 0.43
221, 13461.29, 13462.57, 13477.81, 13483.71, 988.13, 988.42, 991.52, 988.93, 0.00, 0.00, 0.00
222, 14422.46, 14423.89, 14440.90, 14446.40, 1877.41, 1877.30, 1882.17, 1879.18, 0.00, 0.00, 0.00
223, 14815.09, 14815.99, 14833.76, 14839.12, 2263.96, 2263.85, 2269.15, 2266.22, 0.00, 0.00, 0.00
224, 13907.21, 13908.60, 13924.69, 13930.25, 1427.36, 1427.72, 1431.45, 1428.88, 0.00, 0.00, 0.00
225, 13444.42, 13445.83, 13461.18, 13466.88, 979.92, 980.41, 983.68, 980.62, 0.00, 0.00, 0.00
226, 14303.46, 14304.83, 14321.68, 14326.98, 1762.08, 1762.17, 1767.11, 1764.04, 0.00, 0.00, 0.00
227, 14931.14, 14932.33, 14950.30, 14955.69, 2362.22, 2362.53, 2368.30, 2364.79, 0.00, 0.00, 0.00
228, 14143.71, 14144.67, 14161.48, 14166.94, 1644.62, 1645.02, 1649.72, 1646.56, 0.00, 0.00, 0.00
229, 13438.63, 13439.72, 13455.44, 13461.18, 975.74, 976.46, 979.52, 976.86, 0.00, 0.00, 0.00
230, 14140.52, 14141.90, 14158.35, 14164.01, 1620.59, 1620.70, 1625.24, 1622.40, 0.40, -0.81, 0.43
231, 14954.50, 14956.07, 14973.59, 14978.93, 2387.66, 2387.57, 2393.92, 2390.50, 0.00, 0.00, 0.00
232, 14342.35, 14343.65, 14360.66, 14366.07, 1844.20, 1844.69, 1849.34, 1846.12, 0.00, 0.00, 0.00
233, 13491.24, 13492.36, 13508.19, 13513.42, 1045.23, 1046.04, 1049.03, 1046.02, 0.00, 0.00, 0.00
234, 13978.40, 13980.14, 13996.13, 14001.83, 1476.82, 1477.23, 1481.38, 1478.19, 0.00, 0.00, 0.00
235, 14908.81, 14910.51, 14927.95, 14933.49, 2365.40, 2365.44, 2371.54, 2367.79, 0.00, 0.00, 0.00
236, 14522.08, 14523.34, 14540.46, 14546.00, 2013.20, 2013.67, 2018.59, 2015.37, 0.00, 0.00, 0.00
237, 13563.89, 13565.12, 13580.67, 13586.44, 1101.81, 1102.30, 1105.61, 1103.21, 0.00, 0.00, 0.00
238, 13833.25, 13834.81, 13850.66, 13856.38, 1320.61, 1320.68, 1324.92, 1322.20, 0.00, 0.00, 0.00
239, 14840.95, 14842.54, 14860.24, 14865.54, 2266.82, 2266.49, 2272.68, 2269.39, 0.00, 0.00, 0.00
240, 14697.52, 14698.80, 14716.34, 14721.64, 2173.51, 2173.64, 2179.18, 2175.96, 0.39, -0.81, 0.43
241, 13677.34, 13678.40, 13694.44, 13699.79, 1227.92, 1228.74, 1232.14, 1229.41, 0.00, 0.00, 0.00
242, 13654.39, 13655.26, 13671.42, 13677.10, 1184.49, 1185.27, 1188.98, 1186.05, 0.00, 0.00, 0.00
243, 14644.28, 14645.29, 14662.95, 14668.26, 2094.89, 2095.05, 2100.71, 2097.58, 0.00, 0.00, 0.00
244, 14796.65, 14797.44, 14815.43, 14820.79, 2251.47, 2251.74, 2257.06, 2254.04, 0.00, 0.00, 0.00
245, 13823.95, 13824.64, 13841.00, 13846.59, 1347.25, 1347.45, 1351.32, 1348.37, 0.00, 0.00, 0.00
246, 13538.41, 13539.23, 13554.83, 13560.62, 1065.69, 1066.13, 1069.49, 1066.96, 0.00, 0.00, 0.00
247, 14466.16, 14467.23, 14484.11, 14489.85, 1933.69, 1934.10, 1938.81, 1936.42, 0.00, 0.00, 0.00
248, 14884.09, 14885.43, 14902.87, 14908.68, 2348.39, 2348.61, 2353.97, 2351.16, 0.00, 0.00, 0.00
249, 13987.79, 13988.66, 14004.78, 14010.88, 1512.34, 1513.01, 1517.10, 1514.38, 0.00, 0.00, 0.00
250, 13433.02, 13434.02, 13449.18, 13455.21, 988.98, 989.47, 992.60, 990.16, 0.39, -0.81, 0.43
251, 14273.00, 14274.70, 14290.95, 14296.78, 1764.94, 1765.21, 1769.68, 1766.55, 0.00, 0.00, 0.00
252, 14934.81, 14936.31, 14953.96, 14959.55, 2385.02, 2385.36, 2391.03, 2387.86, 0.00, 0.00, 0.00
253, 14164.12, 14165.22, 14181.82, 14187.23, 1676.40, 1676.78, 1681.10, 1678.17, 0.00, 0.00, 0.00
254, 13424.23, 13425.35, 13440.64, 13446.50, 976.68, 977.08, 980.28, 977.53, 0.00, 0.00, 0.00
255, 14139.62, 14140.92, 14157.30, 14162.74, 1618.91, 1618.94, 1623.45, 1620.59, 0.00, 0.00, 0.00
0, 14997.44, 14998.82, 15017.13, 15021.80, 2405.47, 2404.98, 2410.95, 2408.02, 0.00, 0.00, 0.00
1, 14382.36, 14383.91, 14401.03, 14405.90, 1840.31, 1840.60, 1845.18, 1842.30, 0.00, 0.00, 0.00
2, 13491.18, 13492.25, 13507.67, 13513.48, 1032.87, 1033.52, 1036.41, 1033.79, 0.00, 0.00, 0.00
3, 13948.72, 13950.33, 13966.40, 13971.99, 1457.67, 1457.67, 1461.60, 1458.94, 0.00, 0.00, 0.00
4, 14906.91, 14908.37, 14926.07, 14931.17, 2353.50, 2353.35, 2358.96, 2355.99, 0.00, 0.00, 0.00
5, 14541.42, 14542.67, 14559.84, 14565.42, 2032.85, 2032.96, 2037.83, 2035.15, 0.39, -0.81, 0.42
6, 13582.15, 13583.11, 13598.87, 13604.54, 1133.77, 1134.19, 1137.44, 1134.80, 0.00, 0.00, 0.00
7, 13793.51, 13794.74, 13810.76, 13816.33, 1304.07, 1304.09, 1308.05, 1305.25, 0.00, 0.00, 0.00
8, 14792.36, 14793.75, 14811.41, 14816.72, 2234.91, 2234.37, 2240.29, 2237.19, 0.00, 0.00, 0.00
9, 14718.98, 14720.32, 14737.78, 14743.17, 2186.51, 2186.27, 2191.77, 2189.08, 0.00, 0.00, 0.00
10, 13712.19, 13713.51, 13729.02, 13734.61, 1262.83, 1262.96, 1266.70, 1264.24, 0.00, 0.00, 0.00
11, 13651.62, 13652.98, 13668.49, 13674.37, 1183.06, 1183.26, 1187.03, 1184.31, 0.00, 0.00, 0.00
12, 14646.63, 14648.04, 14665.31, 14670.92, 2099.66, 2099.63, 2105.38, 2102.25, 0.00, 0.00, 0.00
13, 14847.50, 14848.75, 14866.50, 14871.69, 2307.62, 2307.62, 2313.32, 2310.12, 0.00, 0.00, 0.00
14, 13878.62, 13879.96, 13895.92, 13901.44, 1406.24, 1406.95, 1410.57, 1407.71, 0.00, 0.00, 0.00
15, 13545.00, 13546.36, 13561.67, 13567.37, 1075.90, 1076.21, 1079.59, 1077.18, 0.40, -0.82, 0.43
16, 14476.91, 14478.36, 14495.33, 14500.83, 1930.30, 1930.07, 1935.30, 1932.64, 0.00, 0.00, 0.00
17, 14919.72, 14921.11, 14939.03, 14944.13, 2352.12, 2351.94, 2357.75, 2354.94, 0.00, 0.00, 0.00
18, 14021.07, 14022.28, 14038.62, 14044.09, 1527.29, 1527.65, 1531.72, 1528.66, 0.00, 0.00, 0.00
19, 13454.43, 13455.77, 13470.99, 13476.89, 996.08, 996.87, 999.97, 996.98, 0.00, 0.00, 0.00
20, 14270.87, 14272.53, 14289.04, 14294.79, 1762.61, 1763.02, 1767.62, 1764.78, 0.00, 0.00, 0.00
21, 14942.81, 14944.29, 14962.21, 14967.38, 2405.03, 2405.29, 2410.77, 2407.82, 0.00, 0.00, 0.00
22, 14189.00, 14189.92, 14207.13, 14212.04, 1716.68, 1717.49, 1721.24, 1718.49, 0.00, 0.00, 0.00
23, 13412.97, 13414.09, 13429.62, 13435.34, 967.65, 968.28, 971.32, 968.77, 0.00, 0.00, 0.00
24, 14058.15, 14059.49, 14075.88, 14081.91, 1540.06, 1540.08, 1544.51, 1541.78, 0.00, 0.00, 0.00
25, 14886.64, 14888.14, 14905.91, 14911.43, 2308.02, 2307.93, 2313.52, 2310.59, 0.39, -0.81, 0.43
26, 14317.12, 14318.06, 14334.75, 14340.45, 1799.18, 1799.38, 1803.85, 1800.99, 0.00, 0.00, 0.00
27, 13441.04, 13441.76, 13457.29, 13463.15, 984.55, 985.38, 988.51, 985.80, 0.00, 0.00, 0.00
28, 13921.98, 13923.50, 13939.55, 13945.34, 1422.24, 1422.82, 1427.02, 1424.01, 0.00, 0.00, 0.00
29, 14876.61, 14878.13, 14895.78, 14901.21, 2313.99, 2313.99, 2319.80, 2316.53, 0.00, 0.00, 0.00
30, 14539.88, 14541.22, 14558.50, 14563.43, 2034.25, 2034.55, 2039.44, 2036.45, 0.00, 0.00, 0.00
31, 13552.94, 13553.78, 13569.70, 13574.82, 1114.46, 1114.66, 1118.32, 1115.46, 0.00, 0.00, 0.00
32, 13732.78, 13733.76, 13750.03, 13755.38, 1248.08, 1248.21, 1252.10, 1249.33, 0.00, 0.00, 0.00
33, 14722.65, 14724.35, 14741.58, 14746.99, 2153.81, 2153.79, 2159.13, 2156.34, 0.00, 0.00, 0.00
34, 14680.87, 14682.17, 14699.27, 14704.72, 2139.93, 2139.82, 2145.03, 2142.01, 0.00, 0.00, 0.00
35, 13691.25, 13691.99, 13707.68, 13713.67, 1223.31, 1223.56, 1227.04, 1224.20, 0.40, -0.81, 0.43
36, 13603.70, 13604.59, 13620.50, 13626.25, 1122.44, 1123.00, 1126.26, 1123.51, 0.00, 0.00, 0.00
37, 14581.41, 14582.68, 14599.98, 14605.55, 2019.79, 2019.99, 2025.16, 2022.05, 0.00, 0.00, 0.00
38, 14831.95, 14833.20, 14851.04, 14856.27, 2260.01, 2260.05, 2265.39, 2262.40, 0.00, 0.00, 0.00
39, 13853.88, 13855.18, 13871.13, 13876.61, 1372.93, 1373.20, 1376.78, 1374.32, 0.00, 0.00, 0.00
40, 13485.46, 13486.80, 13502.35, 13507.81, 1029.03, 1029.19, 1032.61, 1030.17, 0.00, 0.00, 0.00
41, 14426.35, 14427.71, 14444.84, 14450.51, 1884.59, 1884.30, 1889.73, 1886.73, 0.00, 0.00, 0.00
42, 14938.23, 14939.66, 14957.36, 14962.84, 2372.48, 2372.53, 2378.18, 2374.92, 0.00, 0.00, 0.00
43, 14072.41, 14074.07, 14090.00, 14095.77, 1590.37, 1590.75, 1594.71, 1591.87, 0.00, 0.00, 0.00
44, 13451.91, 13453.45, 13468.36, 13474.10, 1004.69, 1005.29, 1008.62, 1005.92, 0.00, 0.00, 0.00
45, 14249.64, 14251.18, 14267.68, 14273.22, 1727.83, 1727.97, 1733.00, 1729.82, 0.00, 0.00, 0.00
46, 14969.37, 14970.77, 14988.61, 14993.75, 2408.56, 2408.67, 2414.59, 2411.37, 0.40, -0.81, 0.43
47, 14240.92, 14241.99, 14258.54, 14264.01, 1763.46, 1763.91, 1768.29, 1765.52, 0.00, 0.00, 0.00
48, 13472.67, 13473.65, 13489.17, 13494.82, 1024.58, 1025.01, 1028.54, 1025.72, 0.00, 0.00, 0.00
49, 14102.56, 14104.11, 14120.58, 14126.17, 1576.60, 1576.63, 1581.27, 1578.26, 0.00, 0.00, 0.00
50, 14955.19, 14956.85, 14974.64, 14980.00, 2376.50, 2376.57, 2382.20, 2379.21, 0.00, 0.00, 0.00
51, 14431.31, 14432.70, 14449.71, 14455.07, 1910.81, 1911.21, 1915.57, 1912.91, 0.00, 0.00, 0.00
52, 13523.30, 13524.46, 13540.22, 13545.85, 1076.48, 1077.04, 1080.10, 1077.51, 0.00, 0.00, 0.00
53, 13909.40, 13910.81, 13927.10, 13932.67, 1421.55, 1421.84, 1426.00, 1423.09, 0.00, 0.00, 0.00
54, 14885.46, 14886.80, 14904.54, 14910.02, 2326.06, 2325.88, 2331.71, 2328.78, 0.00, 0.00, 0.00
55, 14600.85, 14601.79, 14619.09, 14624.46, 2080.52, 2080.59, 2085.62, 2082.49, 0.00, 0.00, 0.00
56, 13610.45, 13611.23, 13627.12, 13632.82, 1148.30, 1149.06, 1152.32, 1149.75, 0.41, -0.82, 0.44
57, 13766.57, 13767.96, 13784.19, 13789.39, 1261.06, 1261.35, 1265.24, 1262.49, 0.00, 0.00, 0.00
58, 14782.28, 14783.85, 14801.39, 14806.55, 2212.13, 2211.95, 2217.54, 2214.52, 0.00, 0.00, 0.00
59, 14786.37, 14787.33, 14804.99, 14810.62, 2236.76, 2236.87, 2242.30, 2239.38, 0.00, 0.00, 0.00
60, 13799.88, 13800.82, 13816.82, 13822.41, 1321.52, 1321.99, 1325.77, 1322.95, 0.00, 0.00, 0.00
61, 13643.95, 13645.16, 13661.16, 13666.30, 1141.48, 1141.68, 1145.17, 1142.35, 0.00, 0.00, 0.00
62, 14626.15, 14627.45, 14644.88, 14649.96, 2068.45, 2068.94, 2073.86, 2070.73, 0.00, 0.00, 0.00
63, 14912.50, 14913.82, 14931.46, 14936.62, 2369.13, 2369.75, 2375.19, 2371.88, 0.00, 0.00, 0.00
64, 13946.66, 13947.87, 13964.01, 13969.46, 1482.79, 1483.57, 1487.51, 1484.63, 0.00, 0.00, 0.00
65, 13540.80, 13541.94, 13557.90, 13563.28, 1087.03, 1087.70, 1090.81, 1088.17, 0.00, 0.00, 0.00
66, 14451.63, 14453.15, 14470.16, 14475.53, 1920.04, 1919.77, 1924.80, 1921.94, 0.40, -0.80, 0.43
67, 14996.86, 14998.09, 15016.08, 15021.11, 2433.68, 2433.28, 2439.31, 2436.32, 0.00, 0.00, 0.00
68, 14160.21, 14161.30, 14178.00, 14183.25, 1660.29, 1661.00, 1665.18, 1662.52, 0.00, 0.00, 0.00
69, 13514.07, 13515.18, 13530.74, 13536.37, 1040.52, 1041.61, 1044.72, 1042.11, 0.00, 0.00, 0.00
70, 14253.71, 14255.07, 14271.66, 14277.31, 1740.51, 1740.89, 1745.43, 1742.81, 0.00, 0.00, 0.00
71, 14991.18, 14992.68, 15010.42, 15015.66, 2440.54, 2440.43, 2446.33, 2443.38, 0.00, 0.00, 0.00
72, 14296.38, 14297.81, 14314.86, 14320.02, 1800.46, 1800.84, 1805.13, 1802.58, 0.00, 0.00, 0.00
73, 13531.63, 13533.02, 13548.84, 13554.16, 1069.84, 1070.67, 1073.60, 1071.30, 0.00, 0.00, 0.00
74, 14113.32, 14114.50, 14131.02, 14136.16, 1602.58, 1602.87, 1607.22, 1604.48, 0.00, 0.00, 0.00
75, 14987.58, 14989.10, 15007.09, 15012.06, 2437.30, 2437.23, 2442.82, 2440.01, 0.00, 0.00, 0.00
76, 14493.54, 14495.04, 14512.41, 14517.44, 1994.65, 1995.14, 1999.79, 1996.95, 0.40, -0.82, 0.43
77, 13577.81, 13579.06, 13594.69, 13600.30, 1125.39, 1126.62, 1129.41, 1126.59, 0.00, 0.00, 0.00
78, 13941.32, 13942.64, 13958.82, 13964.34, 1443.12, 1443.48, 1447.36, 1444.50, 0.00, 0.00, 0.00
79, 14923.50, 14925.02, 14942.77, 14947.91, 2349.03, 2348.54, 2354.33, 2351.05, 0.00, 0.00, 0.00
80, 14689.86, 14691.09, 14708.48, 14713.44, 2150.89, 2150.77, 2155.80, 2152.72, 0.00, 0.00, 0.00
81, 13694.62, 13695.65, 13711.48, 13717.02, 1219.40, 1220.09, 1223.53, 1220.54, 0.00, 0.00, 0.00
82, 13809.02, 13810.07, 13826.25, 13831.88, 1305.07, 1305.57, 1309.28, 1306.66, 0.00, 0.00, 0.00
83, 14808.52, 14810.02, 14827.61, 14832.97, 2235.24, 2235.08, 2240.83, 2237.99, 0.00, 0.00, 0.00
84, 14841.09, 14842.36, 14860.20, 14865.54, 2299.23, 2299.23, 2304.87, 2301.85, 0.00, 0.00, 0.00
85, 13835.24, 13836.89, 13852.90, 13858.26, 1369.80, 1370.25, 1373.92, 1371.32, 0.00, 0.00, 0.00
86, 13663.20, 13664.92, 13680.59, 13685.95, 1190.81, 1191.59, 1195.13, 1192.26, 0.40, -0.81, 0.42
87, 14624.41, 14626.04, 14643.25, 14648.73, 2080.52, 2080.90, 2086.20, 2083.03, 0.00, 0.00, 0.00
88, 14933.94, 14935.30, 14953.29, 14958.19, 2387.05, 2387.14, 2392.62, 2389.71, 0.00, 0.00, 0.00
89, 13995.19, 13996.51, 14012.67, 14018.16, 1522.91, 1523.18, 1527.16, 1524.63, 0.00, 0.00, 0.00
90, 13566.99, 13568.25, 13583.92, 13589.44, 1106.63, 1107.15, 1110.37, 1107.77, 0.00, 0.00, 0.00
91, 14431.07, 14432.43, 14449.58, 14454.67, 1912.91, 1913.29, 1917.87, 1914.83, 0.00, 0.00, 0.00
92, 14992.52, 14993.73, 15011.86, 15016.86, 2456.97, 2456.90, 2462.92, 2459.54, 0.00, 0.00, 0.00
93, 14148.25, 14149.17, 14165.64, 14171.09, 1681.48, 1681.70, 1686.13, 1683.29, 0.00, 0.00, 0.00
94, 13483.31, 13484.54, 13499.87, 13505.57, 1042.49, 1043.20, 1046.58, 1043.67, 0.00, 0.00, 0.00
95, 14238.19, 14239.56, 14256.05, 14261.66, 1718.98, 1719.05, 1723.99, 1720.88, 0.00, 0.00, 0.00
96, 15015.01, 15016.44, 15034.48, 15039.37, 2459.14, 2459.23, 2464.88, 2461.78, 0.00, 0.00, 0.00
97, 14326.89, 14328.00, 14344.83, 14350.13, 1843.59, 1843.95, 1848.33, 1845.34, 0.40, -0.82, 0.42
98, 13492.94, 13494.08, 13509.57, 13514.96, 1062.07, 1062.60, 1065.80, 1063.36, 0.00, 0.00, 0.00
99, 14054.89, 14056.09, 14072.43, 14078.00, 1570.95, 1571.17, 1575.55, 1572.74, 0.00, 0.00, 0.00
100, 14965.05, 14966.48, 14984.30, 14989.44, 2423.20, 2423.33, 2429.03, 2425.63, 0.00, 0.00, 0.00
101, 14509.81, 14510.93, 14528.16, 14533.26, 2007.77, 2008.26, 2012.77, 2009.73, 0.00, 0.00, 0.00
102, 13558.86, 13559.66, 13575.53, 13580.90, 1121.81, 1122.48, 1125.39, 1122.93, 0.00, 0.00, 0.00
103, 13883.45, 13884.70, 13901.02, 13906.34, 1386.17, 1386.39, 1390.39, 1387.57, 0.00, 0.00, 0.00
104, 14848.44, 14850.14, 14867.67, 14873.07, 2290.94, 2291.08, 2296.62, 2293.56, 0.00, 0.00, 0.00
105, 14651.55, 14652.93, 14670.23, 14675.28, 2135.06, 2135.64, 2140.76, 2137.68, 0.00, 0.00, 0.00
106, 13659.62, 13660.85, 13676.79, 13682.24, 1209.41, 1210.08, 1213.32, 1210.55, 0.00, 0.00, 0.00
107, 13723.32, 13724.95, 13741.03, 13746.50, 1247.67, 1248.10, 1251.99, 1249.22, 0.39, -0.82, 0.43
108, 14710.35, 14711.60, 14729.53, 14735.05, 2176.72, 2176.28, 2182.16, 2179.09, 0.00, 0.00, 0.00
109, 14794.78, 14796.30, 14813.69, 14819.21, 2270.20, 2270.07, 2275.52, 2272.64, 0.00, 0.00, 0.00
110, 13809.24, 13810.43, 13826.43, 13831.95, 1354.87, 1355.03, 1358.81, 1355.92, 0.00, 0.00, 0.00
111, 13591.09, 13592.43, 13608.72, 13613.93, 1125.05, 1125.39, 1129.19, 1125.92, 0.00, 0.00, 0.00
112, 14557.36, 14558.92, 14576.20, 14581.74, 2011.63, 2011.77, 2017.02, 2013.89, 0.00, 0.00, 0.00
113, 14911.47, 14912.86, 14930.61, 14936.35, 2369.55, 2369.82, 2375.12, 2372.50, 0.00, 0.00, 0.00
114, 13976.17, 13976.88, 13993.38, 13998.85, 1536.37, 1537.44, 1541.02, 1538.56, 0.00, 0.00, 0.00
115, 13488.12, 13488.88, 13504.57, 13510.04, 1064.52, 1065.19, 1068.48, 1065.93, 0.00, 0.00, 0.00
116, 14346.29, 14347.43, 14364.55, 14369.69, 1850.30, 1850.37, 1855.24, 1852.04, 0.00, 0.00, 0.00
117, 14965.70, 14967.08, 14985.15, 14989.93, 2437.77, 2437.66, 2443.58, 2440.36, 0.40, -0.82, 0.43
118, 14190.41, 14191.68, 14208.36, 14213.63, 1722.11, 1722.85, 1726.99, 1724.37, 0.00, 0.00, 0.00
119, 13533.44, 13534.61, 13550.52, 13555.93, 1094.72, 1095.44, 1098.52, 1095.77, 0.00, 0.00, 0.00
120, 14275.48, 14276.84, 14293.83, 14299.08, 1770.10, 1769.83, 1774.95, 1771.89, 0.00, 0.00, 0.00
121, 15038.45, 15039.59, 15057.81, 15063.09, 2490.36, 2490.19, 2496.13, 2493.05, 0.00, 0.00, 0.00
122, 14381.96, 14382.97, 14399.87, 14405.54, 1921.94, 1922.45, 1926.79, 1924.13, 0.00, 0.00, 0.00
123, 13549.05, 13550.32, 13566.12, 13571.51, 1137.19, 1137.99, 1141.19, 1138.53, 0.00, 0.00, 0.00
124, 14102.12, 14103.50, 14120.16, 14125.50, 1634.31, 1634.69, 1639.30, 1636.39, 0.00, 0.00, 0.00
125, 15017.94, 15019.50, 15037.20, 15042.79, 2487.61, 2487.84, 2493.58, 2490.61, 0.00, 0.00, 0.00
126, 14605.37, 14606.78, 14623.81, 14629.28, 2115.68, 2116.24, 2121.09, 2118.19, 0.00, 0.00, 0.00
127, 13673.03, 13674.28, 13690.31, 13695.83, 1238.40, 1239.05, 1242.67, 1240.03, 0.40, -0.82, 0.42
128, 13958.75, 13960.21, 13976.95, 13982.25, 1479.71, 1479.75, 1483.95, 1480.98, 0.00, 0.00, 0.00
129, 14936.53, 14937.85, 14955.86, 14960.87, 2404.51, 2404.65, 2410.43, 2407.17, 0.00, 0.00, 0.00
130, 14784.99, 14786.44, 14803.63, 14809.10, 2299.19, 2299.70, 2304.87, 2301.98, 0.00, 0.00, 0.00
131, 13791.56, 13792.93, 13808.75, 13814.29, 1362.52, 1363.12, 1366.32, 1363.81, 0.00, 0.00, 0.00
132, 13819.66, 13821.04, 13837.05, 13842.57, 1361.06, 1361.40, 1364.95, 1362.58, 0.00, 0.00, 0.00
133, 14814.47, 14816.32, 14833.71, 14839.26, 2278.96, 2278.98, 2284.10, 2281.60, 0.00, 0.00, 0.00
134, 14935.17, 14937.31, 14954.43, 14960.27, 2434.62, 2434.86, 2440.05, 2437.46, 0.00, 0.00, 0.00
135, 13951.31, 13952.88, 13968.72, 13974.53, 1538.83, 1539.28, 1543.23, 1540.53, 0.00, 0.00, 0.00
136, 13684.92, 13686.73, 13702.54, 13707.88, 1249.31, 1249.64, 1253.89, 1250.74, 0.00, 0.00, 0.00
137, 14635.16, 14636.84, 14654.18, 14659.32, 2120.67, 2120.80, 2126.01, 2123.13, 0.39, -0.81, 0.42
138, 15041.90, 15043.04, 15061.34, 15066.37, 2505.03, 2505.09, 2510.70, 2507.69, 0.00, 0.00, 0.00
139, 14125.85, 14126.73, 14143.47, 14148.41, 1662.70, 1663.17, 1667.48, 1664.67, 0.00, 0.00, 0.00
140, 13597.24, 13598.58, 13614.27, 13619.72, 1172.24, 1172.91, 1176.37, 1173.71, 0.00, 0.00, 0.00
141, 14456.17, 14457.51, 14474.56, 14480.17, 1973.30, 1973.82, 1978.89, 1975.25, 0.00, 0.00, 0.00
142, 15081.10, 15082.29, 15100.53, 15105.71, 2577.89, 2577.98, 2583.77, 2580.53, 0.00, 0.00, 0.00
143, 14289.51, 14290.43, 14307.22, 14312.65, 1847.57, 1847.73, 1852.24, 1849.63, 0.00, 0.00, 0.00
144, 13579.47, 13580.50, 13596.07, 13601.82, 1160.48, 1161.06, 1164.55, 1161.75, 0.00, 0.00, 0.00
145, 14277.06, 14278.45, 14294.97, 14300.69, 1791.78, 1792.14, 1796.68, 1793.79, 0.00, 0.00, 0.00
146, 15078.13, 15079.36, 15097.46, 15102.83, 2544.84, 2544.90, 2550.96, 2547.90, 0.00, 0.00, 0.00
147, 14451.16, 14452.21, 14469.18, 14474.45, 1976.30, 1976.70, 1981.33, 1978.33, 0.00, 0.00, 0.00
148, 13592.41, 13593.50, 13609.24, 13614.58, 1174.32, 1174.79, 1177.85, 1175.39, 0.40, -0.81, 0.43
149, 14089.73, 14091.19, 14107.48, 14112.85, 1608.74, 1608.95, 1613.08, 1610.53, 0.00, 0.00, 0.00
150, 15066.73, 15068.23, 15086.04, 15091.14, 2537.06, 2537.50, 2543.23, 2540.25, 0.00, 0.00, 0.00
151, 14638.54, 14639.74, 14657.09, 14662.18, 2166.17, 2166.31, 2171.27, 2168.43, 0.00, 0.00, 0.00
152, 13680.74, 13682.02, 13697.68, 13703.18, 1274.03, 1274.45, 1277.85, 1275.06, 0.00, 0.00, 0.00
153, 13934.81, 13936.20, 13952.52, 13957.84, 1482.08, 1482.43, 1486.26, 1483.51, 0.00, 0.00, 0.00
154, 14942.61, 14944.13, 14962.26, 14967.49, 2414.44, 2414.57, 2420.09, 2417.16, 0.00, 0.00, 0.00
155, 14834.27, 14835.72, 14853.52, 14858.88, 2334.55, 2335.09, 2340.09, 2337.50, 0.00, 0.00, 0.00
156, 13827.03, 13828.22, 13844.22, 13849.50, 1396.56, 1397.45, 1400.74, 1398.24, 0.00, 0.00, 0.00
157, 13821.89, 13823.08, 13839.06, 13844.47, 1374.19, 1374.77, 1378.34, 1375.39, 0.00, 0.00, 0.00
158, 14829.62, 14831.10, 14848.73, 14853.99, 2297.71, 2298.27, 2303.37, 2300.42, 0.40, -0.81, 0.43
159, 14985.62, 14986.71, 15004.93, 15009.93, 2467.83, 2468.17, 2473.71, 2470.40, 0.00, 0.00, 0.00
160, 13990.69, 13991.61, 14007.97, 14013.49, 1554.25, 1554.88, 1558.81, 1556.04, 0.00, 0.00, 0.00
161, 13678.22, 13679.63, 13695.14, 13701.02, 1253.35, 1254.02, 1257.38, 1254.78, 0.00, 0.00, 0.00
162, 14610.71, 14612.09, 14629.46, 14634.74, 2109.45, 2109.85, 2115.03, 2111.99, 0.00, 0.00, 0.00
163, 15063.89, 15065.30, 15083.49, 15088.57, 2537.17, 2537.44, 2543.18, 2540.05, 0.00, 0.00, 0.00
164, 14197.49, 14198.68, 14215.58, 14220.76, 1750.28, 1750.61, 1754.57, 1751.95, 0.00, 0.00, 0.00
165, 13629.83, 13631.28, 13647.15, 13652.42, 1219.47, 1220.05, 1223.31, 1220.65, 0.00, 0.00, 0.00
166, 14455.79, 14457.17, 14474.39, 14479.53, 1970.57, 1970.62, 1975.51, 1972.70, 0.00, 0.00, 0.00
167, 15122.05, 15123.26, 15141.83, 15146.82, 2588.47, 2588.62, 2594.61, 2591.60, 0.00, 0.00, 0.00
168, 14358.27, 14359.34, 14375.99, 14381.69, 1893.66, 1894.04, 1898.49, 1895.76, 0.39, -0.81, 0.44
169, 13596.97, 13598.11, 13613.64, 13619.28, 1179.43, 1179.86, 1183.10, 1180.69, 0.00, 0.00, 0.00
170, 14262.36, 14263.79, 14280.51, 14285.76, 1774.21, 1774.30, 1778.89, 1776.09, 0.00, 0.00, 0.00
171, 15108.53, 15109.64, 15128.17, 15133.09, 2573.67, 2573.76, 2579.30, 2576.24, 0.00, 0.00, 0.00
172, 14517.14, 14518.33, 14535.58, 14540.75, 2045.03, 2045.74, 2050.30, 2047.29, 0.00, 0.00, 0.00
173, 13626.99, 13628.10, 13644.06, 13648.94, 1205.05, 1205.74, 1209.32, 1206.39, 0.00, 0.00, 0.00
174, 14094.03, 14095.28, 14112.13, 14117.65, 1611.92, 1612.32, 1616.37, 1613.77, 0.00, 0.00, 0.00
175, 15028.15, 15029.71, 15047.69, 15053.32, 2484.04, 2483.95, 2489.98, 2486.81, 0.00, 0.00, 0.00
176, 14682.97, 14684.58, 14701.88, 14707.29, 2178.47, 2178.89, 2183.63, 2180.95, 0.00, 0.00, 0.00
177, 13721.36, 13722.36, 13737.96, 13743.60, 1276.91, 1277.31, 1280.64, 1278.25, 0.00, 0.00, 0.00
178, 13941.97, 13943.08, 13959.63, 13964.63, 1467.82, 1468.00, 1472.38, 1469.09, 0.39, -0.81, 0.44
179, 14939.50, 14940.67, 14958.77, 14963.67, 2397.83, 2397.63, 2403.57, 2400.26, 0.00, 0.00, 0.00
180, 14892.39, 14893.93, 14911.38, 14916.57, 2379.97, 2380.04, 2385.87, 2382.34, 0.00, 0.00, 0.00
181, 13846.26, 13847.67, 13863.42, 13869.17, 1416.54, 1417.39, 1420.77, 1418.17, 0.00, 0.00, 0.00
182, 13795.45, 13796.75, 13812.84, 13818.59, 1346.25, 1346.89, 1350.38, 1347.79, 0.00, 0.00, 0.00
183, 14796.27, 14797.61, 14815.47, 14821.17, 2266.76, 2267.09, 2272.57, 2269.22, 0.00, 0.00, 0.00
184, 14990.00, 14991.20, 15009.17, 15014.69, 2483.68, 2483.93, 2489.58, 2486.25, 0.00, 0.00, 0.00
185, 14018.63, 14019.50, 14035.96, 14041.34, 1591.69, 1592.70, 1596.18, 1593.43, 0.00, 0.00, 0.00
186, 13696.81, 13697.91, 13713.89, 13719.14, 1270.50, 1271.46, 1274.56, 1271.88, 0.00, 0.00, 0.00
187, 14625.66, 14627.16, 14644.33, 14649.53, 2138.70, 2138.86, 2144.09, 2141.05, 0.00, 0.00, 0.00
188, 15092.08, 15093.53, 15111.32, 15116.66, 2574.27, 2574.27, 2580.20, 2576.78, 0.00, 0.00, 0.00
189, 14195.23, 14196.22, 14212.78, 14218.08, 1742.97, 1743.46, 1747.37, 1744.71, 0.40, -0.81, 0.43
190, 13613.62, 13614.63, 13630.32, 13635.59, 1189.05, 1189.36, 1192.76, 1190.14, 0.00, 0.00, 0.00
191, 14446.20, 14447.59, 14464.64, 14469.76, 1961.88, 1961.90, 1967.22, 1963.85, 0.00, 0.00, 0.00
192, 15153.16, 15154.62, 15172.88, 15177.86, 2622.62, 2622.89, 2628.90, 2625.64, 0.00, 0.00, 0.00
193, 14388.85, 14390.19, 14406.97, 14412.43, 1922.90, 1923.55, 1928.02, 1925.16, 0.00, 0.00, 0.00
194, 13615.12, 13616.48, 13631.79, 13637.27, 1192.98, 1193.67, 1197.11, 1194.37, 0.00, 0.00, 0.00
195, 14263.36, 14265.08, 14281.49, 14286.97, 1779.38, 1779.33, 1784.14, 1781.50, 0.00, 0.00, 0.00
196, 15145.54, 15147.29, 15164.85, 15170.44, 2623.49, 2623.51, 2629.39, 2626.51, 0.00, 0.00, 0.00
197, 14592.63, 14593.99, 14611.09, 14616.41, 2119.10, 2119.39, 2124.13, 2121.09, 0.00, 0.00, 0.00
198, 13687.18, 13688.07, 13704.01, 13709.44, 1267.88, 1268.60, 1271.64, 1269.09, 0.00, 0.00, 0.00
199, 14124.36, 14125.56, 14142.13, 14147.60, 1646.21, 1646.45, 1650.97, 1647.90, 0.41, -0.81, 0.43
200, 15090.11, 15091.56, 15109.96, 15115.10, 2558.74, 2558.98, 2564.89, 2561.31, 0.00, 0.00, 0.00
201, 14788.36, 14789.50, 14807.25, 14812.32, 2310.72, 2311.01, 2316.04, 2313.05, 0.00, 0.00, 0.00
202, 13795.29, 13796.48, 13812.30, 13818.09, 1382.52, 1383.33, 1386.77, 1384.04, 0.00, 0.00, 0.00
203, 13971.27, 13972.81, 13988.86, 13994.52, 1522.40, 1523.03, 1526.80, 1524.01, 0.00, 0.00, 0.00
204, 14973.23, 14975.06, 14992.68, 14997.93, 2465.42, 2465.64, 2471.45, 2468.39, 0.00, 0.00, 0.00
205, 14932.26, 14933.80, 14951.24, 14956.42, 2454.40, 2454.62, 2460.08, 2457.33, 0.00, 0.00, 0.00
206, 13909.80, 13911.08, 13926.77, 13932.27, 1498.42, 1499.27, 1502.46, 1500.16, 0.00, 0.00, 0.00
207, 13815.77, 13817.18, 13832.98, 13838.55, 1382.43, 1383.28, 1386.79, 1383.89, 0.00, 0.00, 0.00
208, 14813.26, 14814.69, 14832.91, 14837.89, 2323.64, 2323.93, 2329.30, 2326.32, 0.00, 0.00, 0.00
209, 15092.59, 15093.80, 15111.86, 15117.02, 2614.91, 2615.09, 2620.38, 2617.75, 0.40, -0.82, 0.42
210, 14160.17, 14161.10, 14177.96, 14183.32, 1745.76, 1746.36, 1750.16, 1747.44, 0.00, 0.00, 0.00
211, 13743.06, 13744.36, 13759.98, 13765.72, 1329.06, 1329.64, 1333.13, 1330.29, 0.00, 0.00, 0.00
212, 14641.31, 14642.83, 14660.02, 14665.63, 2163.00, 2163.00, 2168.23, 2165.35, 0.00, 0.00, 0.00
213, 15151.98, 15153.68, 15171.78, 15176.92, 2652.93, 2652.88, 2658.96, 2655.74, 0.00, 0.00, 0.00
214, 14298.95, 14300.15, 14317.03, 14322.42, 1859.80, 1860.25, 1864.60, 1861.54, 0.00, 0.00, 0.00
215, 13674.77, 13675.67, 13691.61, 13697.19, 1261.89, 1262.61, 1265.71, 1263.19, 0.00, 0.00, 0.00
216, 14478.72, 14479.88, 14496.98, 14502.44, 1987.56, 1987.74, 1992.57, 1989.82, 0.00, 0.00, 0.00
217, 15202.45, 15204.19, 15221.96, 15227.19, 2666.14, 2665.98, 2671.88, 2668.82, 0.00, 0.00, 0.00
218, 14462.67, 14464.22, 14480.80, 14486.25, 2011.39, 2012.15, 2016.26, 2013.36, 0.00, 0.00, 0.00
219, 13674.42, 13675.36, 13691.20, 13696.72, 1273.36, 1274.45, 1277.58, 1274.74, 0.39, -0.82, 0.42
220, 14296.24, 14297.43, 14314.37, 14319.55, 1840.29, 1840.62, 1845.09, 1842.41, 0.00, 0.00, 0.00
221, 15176.30, 15177.57, 15195.56, 15201.00, 2668.75, 2668.71, 2675.01, 2671.79, 0.00, 0.00, 0.00
222, 14638.31, 14639.43, 14656.62, 14661.96, 2180.26, 2180.61, 2185.42, 2182.31, 0.00, 0.00, 0.00
