%OpenBCI Raw EEG Data
%
%Sample Rate = 250.0 Hz
%First Column = SampleIndex
%Other Columns = EEG data in microvolts followed by Accel Data (in G) interleaved with Aux Data
0, 75769.69, 75775.83, 75883.79, 75853.62, 29363.22, 29376.58, 29396.10, 29394.73, -0.24, 0.32, 0.07
1, 75771.49, 75777.69, 75885.91, 75855.42, 29368.49, 29381.79, 29401.39, 29400.19, 0.00, 0.00, 0.00
2, 75457.25, 75463.31, 75571.83, 75541.16, 29510.38, 29523.70, 29543.04, 29541.94, 0.00, 0.00, 0.00
3, 75421.38, 75427.44, 75535.66, 75505.22, 29532.33, 29545.83, 29565.17, 29563.76, 0.00, 0.00, 0.00
4, 75751.02, 75756.95, 75864.84, 75835.06, 29386.66, 29400.10, 29419.46, 29418.22, 0.00, 0.00, 0.00
5, 75818.77, 75824.98, 75933.21, 75903.13, 29357.76, 29371.29, 29390.64, 29389.10, 0.00, 0.00, 0.00
6, 75501.04, 75507.38, 75616.04, 75584.88, 29534.95, 29548.42, 29568.07, 29566.69, 0.00, 0.00, 0.00
7, 75393.84, 75400.05, 75508.30, 75477.66, 29570.08, 29583.43, 29603.10, 29601.89, -0.43, 0.58, 0.10
8, 75666.89, 75672.86, 75780.59, 75750.46, 29372.81, 29386.31, 29405.75, 29404.43, 0.00, 0.00, 0.00
9, 75782.45, 75788.37, 75896.48, 75866.47, 29313.28, 29326.76, 29346.12, 29344.64, 0.00, 0.00, 0.00
10, 75536.02, 75541.92, 75650.48, 75620.06, 29442.41, 29455.80, 29475.27, 29473.75, 0.00, 0.00, 0.00
11, 75346.12, 75352.42, 75460.58, 75430.30, 29516.44, 29530.14, 29549.68, 29547.96, 0.00, 0.00, 0.00
12, 75606.92, 75613.55, 75721.05, 75690.89, 29371.26, 29384.70, 29404.14, 29402.56, 0.00, 0.00, 0.00
13, 75835.63, 75842.02, 75949.50, 75919.73, 29237.71, 29251.19, 29270.50, 29269.14, 0.00, 0.00, 0.00
14, 75619.93, 75626.01, 75734.48, 75703.86, 29334.67, 29348.00, 29367.62, 29365.92, 0.00, 0.00, 0.00
15, 75376.63, 75382.77, 75491.20, 75460.54, 29447.24, 29460.43, 29480.07, 29478.57, 0.00, 0.00, 0.00
16, 75550.77, 75557.03, 75664.54, 75634.63, 29339.77, 29353.43, 29373.37, 29371.49, 0.00, 0.00, 0.00
17, 75864.79, 75871.16, 75978.85, 75948.95, 29204.27, 29217.82, 29237.38, 29236.01, -0.47, 0.60, 0.16
18, 75693.40, 75699.57, 75807.95, 75777.48, 29288.92, 29302.71, 29322.04, 29320.41, 0.00, 0.00, 0.00
19, 75398.22, 75404.34, 75512.70, 75482.30, 29454.26, 29467.96, 29487.38, 29486.02, 0.00, 0.00, 0.00
20, 75523.21, 75529.56, 75637.30, 75607.12, 29386.69, 29400.46, 29420.21, 29418.78, 0.00, 0.00, 0.00
21, 75838.20, 75844.25, 75952.34, 75922.34, 29216.95, 29230.72, 29250.10, 29248.80, 0.00, 0.00, 0.00
22, 75751.69, 75757.70, 75866.27, 75836.05, 29259.77, 29273.36, 29292.77, 29291.47, 0.00, 0.00, 0.00
23, 75436.77, 75442.68, 75551.15, 75520.93, 29424.28, 29437.78, 29457.27, 29456.09, 0.00, 0.00, 0.00
24, 75471.96, 75477.57, 75585.95, 75555.80, 29405.60, 29419.25, 29438.63, 29437.29, 0.00, 0.00, 0.00
25, 75820.04, 75826.39, 75934.02, 75904.27, 29248.15, 29261.63, 29281.07, 29279.42, 0.00, 0.00, 0.00
26, 75830.91, 75837.25, 75945.01, 75915.09, 29263.73, 29277.19, 29296.63, 29294.96, 0.00, 0.00, 0.00
27, 75496.68, 75503.05, 75611.59, 75580.72, 29424.97, 29438.68, 29458.06, 29456.71, -0.49, 0.64, 0.16
28, 75449.56, 75455.77, 75563.84, 75533.29, 29439.46, 29453.23, 29473.03, 29471.22, 0.00, 0.00, 0.00
29, 75789.55, 75795.50, 75903.28, 75873.53, 29280.87, 29294.49, 29314.22, 29312.30, 0.00, 0.00, 0.00
30, 75869.15, 75875.32, 75983.52, 75953.64, 29237.89, 29251.15, 29270.90, 29269.23, 0.00, 0.00, 0.00
31, 75560.25, 75566.53, 75675.00, 75644.42, 29360.54, 29374.06, 29393.79, 29392.07, 0.00, 0.00, 0.00
32, 75469.23, 75475.11, 75583.52, 75552.88, 29395.07, 29408.52, 29428.04, 29426.81, 0.00, 0.00, 0.00
33, 75730.50, 75736.09, 75843.96, 75814.12, 29239.37, 29252.87, 29272.60, 29271.20, 0.00, 0.00, 0.00
34, 75898.90, 75904.69, 76012.85, 75982.83, 29163.08, 29176.20, 29195.89, 29194.37, 0.00, 0.00, 0.00
35, 75634.01, 75640.20, 75748.36, 75717.94, 29301.21, 29314.58, 29334.05, 29332.73, 0.00, 0.00, 0.00
36, 75445.56, 75451.64, 75559.76, 75529.13, 29414.07, 29427.79, 29447.26, 29445.76, 0.00, 0.00, 0.00
37, 75705.04, 75710.74, 75818.73, 75788.82, 29304.54, 29318.42, 29338.05, 29336.24, 0.00, 0.00, 0.00
38, 75912.96, 75918.73, 76026.86, 75996.89, 29212.07, 29225.69, 29245.36, 29243.50, -0.52, 0.72, 0.35
39, 75669.95, 75676.25, 75784.77, 75753.95, 29360.63, 29374.04, 29393.50, 29392.07, 0.00, 0.00, 0.00
40, 75466.41, 75472.63, 75581.21, 75550.81, 29471.69, 29484.99, 29504.62, 29503.43, 0.00, 0.00, 0.00
41, 75640.06, 75646.26, 75754.28, 75724.31, 29361.34, 29374.71, 29394.49, 29392.61, 0.00, 0.00, 0.00
42, 75896.24, 75902.56, 76010.48, 75980.64, 29267.11, 29280.34, 29299.94, 29298.17, 0.00, 0.00, 0.00
43, 75758.55, 75765.05, 75873.33, 75843.00, 29354.19, 29367.71, 29387.22, 29385.97, 0.00, 0.00, 0.00
44, 75467.49, 75474.09, 75582.33, 75551.62, 29482.87, 29496.46, 29516.10, 29514.72, 0.00, 0.00, 0.00
45, 75595.01, 75601.11, 75709.11, 75678.91, 29457.83, 29471.20, 29491.03, 29489.30, 0.00, 0.00, 0.00
46, 75890.95, 75896.66, 76004.58, 75974.83, 29410.51, 29423.70, 29443.26, 29441.92, 0.00, 0.00, 0.00
47, 75810.34, 75816.47, 75924.90, 75894.70, 29526.72, 29540.04, 29559.64, 29558.55, 0.00, 0.00, 0.00
48, 75524.73, 75531.03, 75639.38, 75608.77, 29712.42, 29725.81, 29745.70, 29744.40, -0.52, 0.78, 0.26
49, 75555.06, 75561.21, 75669.02, 75639.10, 29706.43, 29719.73, 29739.67, 29738.46, 0.00, 0.00, 0.00
50, 75864.92, 75871.27, 75979.05, 75949.15, 29586.44, 29600.17, 29619.93, 29618.50, 0.00, 0.00, 0.00
51, 75861.69, 75867.80, 75976.26, 75945.84, 29614.79, 29628.55, 29648.04, 29646.48, 0.00, 0.00, 0.00
52, 75574.06, 75580.16, 75688.99, 75658.23, 29780.10, 29793.73, 29813.11, 29811.82, 0.00, 0.00, 0.00
53, 75526.52, 75532.82, 75641.03, 75610.47, 29815.42, 29828.94, 29848.83, 29847.36, 0.00, 0.00, 0.00
54, 75795.97, 75802.38, 75910.19, 75880.39, 29685.71, 29699.48, 29719.26, 29717.94, 0.00, 0.00, 0.00
55, 75869.66, 75876.03, 75984.28, 75954.60, 29635.91, 29649.12, 29668.95, 29667.42, 0.00, 0.00, 0.00
56, 75577.91, 75584.45, 75693.13, 75662.64, 29739.69, 29753.12, 29772.88, 29771.63, 0.00, 0.00, 0.00
57, 75474.38, 75480.59, 75589.13, 75558.33, 29761.48, 29775.25, 29794.90, 29793.55, 0.00, 0.00, 0.00
58, 75726.50, 75732.73, 75840.98, 75810.59, 29581.66, 29595.45, 29614.79, 29613.24, -1.02, 1.07, 0.32
59, 75854.73, 75861.08, 75969.33, 75939.11, 29465.81, 29479.63, 29499.00, 29497.51, 0.00, 0.00, 0.00
60, 75645.23, 75651.38, 75759.96, 75729.41, 29535.39, 29548.58, 29568.12, 29566.78, 0.00, 0.00, 0.00
61, 75491.07, 75497.26, 75605.69, 75575.18, 29539.75, 29552.85, 29572.50, 29571.04, 0.00, 0.00, 0.00
62, 75718.39, 75724.49, 75832.41, 75802.56, 29358.32, 29371.60, 29391.40, 29389.93, 0.00, 0.00, 0.00
63, 75866.80, 75873.02, 75981.00, 75951.07, 29237.13, 29250.23, 29269.72, 29268.13, 0.00, 0.00, 0.00
64, 75687.90, 75694.25, 75802.48, 75772.26, 29333.65, 29346.74, 29366.35, 29364.78, 0.00, 0.00, 0.00
65, 75490.33, 75496.55, 75605.00, 75574.51, 29424.26, 29437.47, 29457.01, 29455.60, 0.00, 0.00, 0.00
66, 75602.63, 75608.44, 75716.58, 75686.54, 29349.45, 29362.88, 29382.44, 29381.08, 0.00, 0.00, 0.00
67, 75845.21, 75851.45, 75959.45, 75929.50, 29210.02, 29223.59, 29242.99, 29241.62, 0.00, 0.00, 0.00
68, 75739.64, 75746.02, 75854.35, 75824.09, 29268.87, 29282.37, 29301.79, 29300.32, -0.70, 0.88, 0.19
69, 75472.92, 75479.00, 75587.79, 75557.01, 29405.17, 29418.34, 29438.14, 29436.80, 0.00, 0.00, 0.00
70, 75564.12, 75570.30, 75678.51, 75648.41, 29320.64, 29333.78, 29353.52, 29351.91, 0.00, 0.00, 0.00
71, 75838.44, 75845.13, 75952.86, 75922.68, 29175.89, 29188.61, 29208.65, 29207.00, 0.00, 0.00, 0.00
72, 75778.49, 75784.95, 75893.18, 75862.66, 29205.59, 29218.24, 29238.21, 29236.57, 0.00, 0.00, 0.00
73, 75502.09, 75508.17, 75616.42, 75585.64, 29325.76, 29338.63, 29358.50, 29356.91, 0.00, 0.00, 0.00
74, 75527.10, 75533.05, 75641.23, 75610.95, 29306.18, 29319.38, 29339.17, 29337.60, 0.00, 0.00, 0.00
75, 75800.04, 75805.89, 75913.96, 75883.92, 29180.43, 29193.63, 29213.35, 29211.92, 0.00, 0.00, 0.00
76, 75828.98, 75835.20, 75943.49, 75913.07, 29209.35, 29222.36, 29242.03, 29240.55, 0.00, 0.00, 0.00
77, 75571.16, 75577.08, 75685.91, 75655.40, 29372.27, 29385.35, 29404.90, 29403.81, 0.00, 0.00, 0.00
78, 75519.03, 75524.84, 75633.45, 75603.05, 29413.62, 29426.67, 29446.43, 29445.11, 0.00, 0.00, 0.00
79, 75789.35, 75795.30, 75903.44, 75873.11, 29279.62, 29293.19, 29312.93, 29311.27, -0.32, 0.74, 0.38
80, 75880.39, 75887.19, 75995.17, 75964.73, 29253.38, 29266.99, 29286.53, 29284.88, 0.00, 0.00, 0.00
81, 75621.54, 75628.27, 75736.67, 75706.16, 29394.91, 29408.03, 29427.72, 29426.29, 0.00, 0.00, 0.00
82, 75500.73, 75506.90, 75615.48, 75584.79, 29448.11, 29461.32, 29480.81, 29479.67, 0.00, 0.00, 0.00
83, 75741.92, 75748.12, 75856.25, 75826.01, 29290.69, 29303.76, 29323.21, 29322.02, 0.00, 0.00, 0.00
84, 75892.30, 75898.32, 76006.44, 75976.33, 29203.76, 29216.95, 29236.60, 29234.92, 0.00, 0.00, 0.00
85, 75678.69, 75684.48, 75793.04, 75762.82, 29299.18, 29312.66, 29332.04, 29330.63, 0.00, 0.00, 0.00
86, 75493.55, 75499.67, 75608.15, 75577.75, 29366.66, 29380.27, 29399.40, 29397.86, 0.00, 0.00, 0.00
87, 75708.82, 75715.10, 75823.02, 75792.70, 29255.93, 29269.41, 29288.67, 29287.38, 0.00, 0.00, 0.00
88, 75932.36, 75938.55, 76046.29, 76016.09, 29127.67, 29141.20, 29160.33, 29158.99, 0.00, 0.00, 0.00
89, 75683.98, 75689.98, 75798.63, 75768.12, 29241.47, 29255.26, 29274.62, 29272.76, -0.12, 0.74, -0.02
90, 75043.16, 75049.35, 75158.27, 75127.18, 29568.74, 29582.98, 29602.18, 29600.41, 0.00, 0.00, 0.00
91, 74778.74, 74785.09, 74893.72, 74862.43, 29678.38, 29692.39, 29712.04, 29710.43, 0.00, 0.00, 0.00
92, 74907.91, 74914.44, 75022.16, 74991.62, 29604.01, 29617.83, 29637.36, 29636.20, 0.00, 0.00, 0.00
93, 74732.79, 74739.20, 74847.30, 74816.45, 29690.02, 29703.77, 29723.26, 29721.87, 0.00, 0.00, 0.00
94, 74422.34, 74428.83, 74537.08, 74505.83, 29812.35, 29826.08, 29845.39, 29844.12, 0.00, 0.00, 0.00
95, 74512.09, 74518.34, 74625.95, 74595.46, 29727.01, 29740.36, 29759.94, 29758.55, 0.00, 0.00, 0.00
96, 74808.52, 74814.84, 74922.27, 74891.95, 29550.62, 29563.96, 29583.56, 29582.15, 0.00, 0.00, 0.00
97, 74858.54, 74864.95, 74972.69, 74941.95, 29544.78, 29558.15, 29577.59, 29576.36, 0.00, 0.00, 0.00
98, 74673.73, 74679.95, 74787.88, 74756.93, 29659.45, 29673.24, 29692.57, 29691.14, 0.00, 0.00, 0.00
99, 74688.22, 74694.50, 74802.19, 74771.63, 29674.87, 29688.75, 29708.15, 29706.67, -0.26, 0.92, 0.26
100, 74998.13, 75004.34, 75111.73, 75081.67, 29535.21, 29548.85, 29568.32, 29566.89, 0.00, 0.00, 0.00
101, 75017.23, 75023.27, 75130.89, 75100.80, 29554.95, 29568.52, 29588.23, 29586.53, 0.00, 0.00, 0.00
102, 74711.13, 74717.23, 74824.85, 74794.37, 29757.17, 29770.76, 29790.54, 29788.75, 0.00, 0.00, 0.00
103, 74646.40, 74652.68, 74760.01, 74729.50, 29842.57, 29856.19, 29876.10, 29874.65, 0.00, 0.00, 0.00
104, 74911.04, 74917.59, 75024.84, 74994.68, 29730.14, 29743.42, 29763.07, 29762.22, 0.00, 0.00, 0.00
105, 74987.40, 74993.68, 75101.50, 75070.97, 29723.04, 29736.69, 29756.07, 29755.00, 0.00, 0.00, 0.00
106, 74705.54, 74711.66, 74819.71, 74788.94, 29868.84, 29882.36, 29902.05, 29900.55, 0.00, 0.00, 0.00
107, 74544.38, 74550.53, 74658.42, 74627.69, 29933.46, 29946.78, 29966.49, 29964.99, 0.00, 0.00, 0.00
108, 74699.26, 74705.30, 74812.96, 74782.48, 29857.37, 29871.00, 29890.56, 29889.06, 0.00, 0.00, 0.00
109, 74744.12, 74750.34, 74858.09, 74827.45, 29841.23, 29854.60, 29874.29, 29872.79, -0.48, 0.96, 0.35
110, 74444.36, 74450.91, 74558.66, 74527.89, 30001.20, 30014.55, 30034.26, 30032.72, 0.00, 0.00, 0.00
111, 74207.90, 74214.43, 74321.78, 74291.16, 30127.60, 30140.97, 30161.11, 30159.07, 0.00, 0.00, 0.00
112, 74392.41, 74398.52, 74505.65, 74475.56, 30033.28, 30046.67, 30066.89, 30064.73, 0.00, 0.00, 0.00
113, 74598.84, 74604.96, 74712.07, 74682.07, 29942.46, 29955.58, 29975.68, 29974.20, 0.00, 0.00, 0.00
114, 74384.95, 74391.66, 74499.05, 74468.52, 30075.08, 30088.46, 30108.45, 30107.15, 0.00, 0.00, 0.00
115, 74123.01, 74129.54, 74237.05, 74206.45, 30218.91, 30232.39, 30252.55, 30251.10, 0.00, 0.00, 0.00
116, 74276.16, 74282.09, 74389.38, 74359.02, 30159.48, 30172.87, 30193.05, 30191.62, 0.00, 0.00, 0.00
117, 74545.66, 74551.70, 74658.91, 74628.67, 30053.55, 30067.10, 30086.97, 30085.92, 0.00, 0.00, 0.00
118, 74466.76, 74473.02, 74580.37, 74549.97, 30141.28, 30154.78, 30174.68, 30173.65, 0.00, 0.00, 0.00
119, 74217.76, 74224.02, 74331.51, 74300.91, 30307.27, 30320.54, 30340.95, 30339.70, 0.00, 0.00, 0.00
120, 74274.24, 74280.01, 74387.14, 74356.80, 30308.65, 30322.11, 30342.29, 30341.06, -0.39, 0.91, 0.40
121, 74564.14, 74569.89, 74676.98, 74646.95, 30227.09, 30240.52, 30260.57, 30259.52, 0.00, 0.00, 0.00
122, 74497.36, 74503.57, 74611.17, 74580.62, 30320.27, 30333.75, 30353.91, 30352.68, 0.00, 0.00, 0.00
123, 74171.27, 74177.50, 74285.46, 74254.30, 30537.15, 30551.01, 30571.26, 30569.56, 0.00, 0.00, 0.00
124, 74115.72, 74121.94, 74229.67, 74198.83, 30590.91, 30604.48, 30624.88, 30623.19, 0.00, 0.00, 0.00
125, 74352.72, 74358.87, 74466.17, 74435.58, 30489.12, 30502.51, 30523.12, 30521.75, 0.00, 0.00, 0.00
126, 74340.18, 74346.39, 74453.68, 74423.51, 30505.79, 30519.36, 30540.01, 30538.47, 0.00, 0.00, 0.00
127, 74061.67, 74067.84, 74175.29, 74145.09, 30593.81, 30607.36, 30627.99, 30626.49, 0.00, 0.00, 0.00
128, 74083.60, 74089.75, 74197.09, 74166.59, 30544.46, 30558.14, 30578.44, 30577.10, 0.00, 0.00, 0.00
129, 74387.56, 74393.69, 74500.28, 74470.51, 30341.02, 30355.14, 30374.97, 30373.74, 0.00, 0.00, 0.00
130, 74574.23, 74580.46, 74686.95, 74657.23, 30186.79, 30200.58, 30220.52, 30219.56, -0.36, 0.81, 0.44
131, 74420.24, 74426.45, 74533.48, 74503.15, 30214.95, 30228.70, 30248.46, 30247.61, 0.00, 0.00, 0.00
132, 74314.36, 74320.15, 74427.57, 74397.20, 30220.96, 30235.05, 30254.67, 30253.38, 0.00, 0.00, 0.00
133, 74530.75, 74536.88, 74643.96, 74613.79, 30052.03, 30065.76, 30085.63, 30084.31, 0.00, 0.00, 0.00
134, 74670.13, 74676.33, 74783.37, 74753.38, 29957.37, 29970.94, 29990.77, 29989.47, 0.00, 0.00, 0.00
135, 74488.30, 74494.90, 74602.09, 74571.66, 30025.68, 30039.47, 30059.16, 30057.89, 0.00, 0.00, 0.00
136, 74341.01, 74347.40, 74454.22, 74424.06, 30093.90, 30107.42, 30127.07, 30125.75, 0.00, 0.00, 0.00
137, 74583.95, 74590.54, 74697.05, 74667.12, 29931.18, 29944.45, 29964.21, 29962.85, 0.00, 0.00, 0.00
138, 74869.69, 74875.97, 74982.88, 74953.11, 29749.72, 29763.13, 29783.01, 29781.51, 0.00, 0.00, 0.00
139, 74821.32, 74827.40, 74934.71, 74904.78, 29784.44, 29797.78, 29817.67, 29815.86, 0.00, 0.00, 0.00
140, 74636.27, 74642.84, 74750.06, 74719.94, 29871.41, 29884.48, 29904.87, 29902.99, -0.36, 0.76, 0.51
141, 74787.39, 74793.77, 74900.56, 74870.49, 29785.38, 29798.83, 29818.81, 29817.47, 0.00, 0.00, 0.00
142, 75032.34, 75038.76, 75145.47, 75115.59, 29639.46, 29652.96, 29672.63, 29671.34, 0.00, 0.00, 0.00
143, 74910.04, 74916.18, 75023.88, 74993.74, 29721.29, 29734.84, 29754.82, 29753.19, 0.00, 0.00, 0.00
144, 74613.12, 74619.15, 74726.98, 74696.76, 29876.21, 29889.78, 29909.67, 29908.29, 0.00, 0.00, 0.00
145, 74655.59, 74661.77, 74769.17, 74739.07, 29868.28, 29881.89, 29901.96, 29900.40, 0.00, 0.00, 0.00
146, 74910.80, 74916.98, 75023.92, 74994.08, 29750.95, 29764.54, 29784.23, 29783.01, 0.00, 0.00, 0.00
147, 74833.33, 74839.83, 74947.09, 74916.88, 29795.99, 29809.47, 29829.12, 29827.91, 0.00, 0.00, 0.00
148, 74530.50, 74537.08, 74645.10, 74613.96, 29969.20, 29982.99, 30002.79, 30001.40, 0.00, 0.00, 0.00
149, 74448.52, 74454.75, 74562.31, 74532.00, 30007.13, 30020.87, 30040.72, 30039.09, 0.00, 0.00, 0.00
150, 74682.95, 74689.05, 74795.84, 74766.36, 29888.77, 29902.34, 29921.90, 29920.47, -0.37, 0.73, 0.48
151, 74719.15, 74725.14, 74832.38, 74802.70, 29886.70, 29900.44, 29919.96, 29918.44, 0.00, 0.00, 0.00
152, 74421.74, 74427.80, 74535.29, 74505.02, 30065.93, 30079.61, 30099.04, 30097.76, 0.00, 0.00, 0.00
153, 74293.71, 74300.44, 74407.63, 74377.08, 30143.83, 30157.62, 30177.11, 30175.75, 0.00, 0.00, 0.00
154, 74558.24, 74564.84, 74671.32, 74641.39, 30014.21, 30027.91, 30047.63, 30046.46, 0.00, 0.00, 0.00
155, 74662.00, 74668.19, 74775.16, 74745.10, 29956.90, 29970.43, 29990.12, 29989.11, 0.00, 0.00, 0.00
156, 74370.71, 74376.88, 74484.75, 74454.20, 30118.08, 30131.92, 30151.29, 30150.33, 0.00, 0.00, 0.00
157, 74191.34, 74197.66, 74305.13, 74274.64, 30197.50, 30211.42, 30230.80, 30229.75, 0.00, 0.00, 0.00
158, 74404.91, 74411.28, 74518.32, 74487.88, 30095.15, 30108.87, 30128.56, 30127.16, 0.00, 0.00, 0.00
159, 74519.33, 74525.70, 74632.43, 74602.21, 30051.88, 30065.17, 30084.80, 30083.64, 0.00, 0.00, 0.00
160, 74256.45, 74262.69, 74370.06, 74339.46, 30183.46, 30197.12, 30216.67, 30215.33, -0.39, 0.71, 0.49
161, 74011.70, 74017.87, 74125.55, 74094.66, 30332.01, 30345.71, 30365.56, 30364.04, 0.00, 0.00, 0.00
162, 74120.23, 74126.30, 74233.41, 74203.07, 30279.59, 30293.45, 30313.05, 30311.85, 0.00, 0.00, 0.00
163, 74324.87, 74331.06, 74437.97, 74407.70, 30185.92, 30199.71, 30219.67, 30218.26, 0.00, 0.00, 0.00
164, 74160.31, 74166.69, 74273.70, 74243.35, 30277.43, 30291.51, 30311.33, 30309.72, 0.00, 0.00, 0.00
165, 73898.40, 73904.56, 74011.85, 73981.37, 30504.38, 30518.24, 30538.32, 30536.59, 0.00, 0.00, 0.00
166, 74019.25, 74025.16, 74132.20, 74101.84, 30578.37, 30592.18, 30612.08, 30610.73, 0.00, 0.00, 0.00
167, 74298.11, 74304.59, 74411.16, 74380.97, 30443.48, 30457.45, 30477.32, 30476.04, 0.00, 0.00, 0.00
168, 74214.78, 74221.16, 74328.20, 74297.84, 30435.54, 30449.20, 30469.45, 30467.84, 0.00, 0.00, 0.00
169, 73925.89, 73932.48, 74039.50, 74009.04, 30502.08, 30515.56, 30535.59, 30534.09, 0.00, 0.00, 0.00
170, 73974.03, 73980.16, 74086.89, 74056.67, 30423.94, 30437.76, 30457.47, 30456.06, 0.00, 0.00, 0.00
171, 74278.55, 74284.92, 74391.30, 74361.37, 30221.84, 30235.56, 30255.34, 30253.96, -0.36, 0.70, 0.56
172, 74304.86, 74310.88, 74418.12, 74387.92, 30191.51, 30205.10, 30224.86, 30223.31, 0.00, 0.00, 0.00
173, 74085.55, 74091.78, 74199.27, 74168.49, 30305.37, 30319.22, 30339.09, 30337.17, 0.00, 0.00, 0.00
174, 74140.60, 74147.13, 74253.88, 74223.68, 30251.25, 30265.20, 30285.16, 30283.10, 0.00, 0.00, 0.00
175, 74535.76, 74541.63, 74648.25, 74618.28, 30041.84, 30055.45, 30075.30, 30073.62, 0.00, 0.00, 0.00
176, 74655.34, 74661.33, 74767.90, 74737.95, 29978.83, 29992.78, 30012.49, 30011.22, 0.00, 0.00, 0.00
177, 74395.05, 74401.38, 74508.51, 74478.05, 30085.65, 30099.51, 30119.18, 30117.90, 0.00, 0.00, 0.00
178, 74309.47, 74316.06, 74423.10, 74392.68, 30082.54, 30096.22, 30116.20, 30114.62, 0.00, 0.00, 0.00
179, 74645.77, 74651.94, 74758.60, 74728.67, 29902.36, 29915.98, 29936.05, 29934.55, 0.00, 0.00, 0.00
180, 74850.45, 74856.46, 74963.01, 74933.66, 29783.70, 29797.49, 29817.32, 29815.95, 0.00, 0.00, 0.00
181, 74703.02, 74709.38, 74816.56, 74786.50, 29853.23, 29866.94, 29886.72, 29885.58, -0.33, 0.62, 0.61
182, 74692.46, 74698.55, 74805.66, 74775.50, 29850.93, 29864.70, 29883.92, 29882.85, 0.00, 0.00, 0.00
183, 75134.58, 75140.51, 75247.15, 75217.77, 29627.55, 29641.52, 29660.61, 29659.36, 0.00, 0.00, 0.00
184, 75481.23, 75487.25, 75594.45, 75564.72, 29493.73, 29507.27, 29526.63, 29525.18, 0.00, 0.00, 0.00
185, 75366.37, 75372.52, 75479.85, 75450.14, 29609.40, 29622.63, 29642.19, 29640.63, 0.00, 0.00, 0.00
186, 75181.52, 75187.66, 75295.13, 75265.20, 29724.20, 29737.83, 29757.35, 29756.05, 0.00, 0.00, 0.00
187, 75407.20, 75413.33, 75520.59, 75490.96, 29621.83, 29635.24, 29655.04, 29653.86, 0.00, 0.00, 0.00
188, 75742.73, 75748.77, 75855.96, 75826.41, 29471.58, 29484.86, 29504.59, 29503.21, 0.00, 0.00, 0.00
189, 75648.49, 75654.69, 75762.38, 75732.49, 29527.06, 29540.56, 29560.27, 29558.73, 0.00, 0.00, 0.00
190, 75409.48, 75415.59, 75523.70, 75493.48, 29656.54, 29669.91, 29689.96, 29688.23, 0.00, 0.00, 0.00
191, 75632.02, 75638.39, 75745.84, 75716.02, 29520.22, 29533.36, 29553.41, 29551.87, -0.34, 0.56, 0.62
192, 76076.87, 76083.59, 76190.57, 76161.31, 29283.51, 29297.19, 29316.90, 29315.83, 0.00, 0.00, 0.00
193, 76075.68, 76081.60, 76189.61, 76160.13, 29293.81, 29307.67, 29326.81, 29325.80, 0.00, 0.00, 0.00
194, 75798.80, 75804.69, 75913.25, 75882.96, 29426.94, 29440.40, 29459.84, 29458.62, 0.00, 0.00, 0.00
195, 75817.54, 75823.62, 75931.87, 75901.73, 29411.52, 29424.75, 29444.40, 29443.15, 0.00, 0.00, 0.00
196, 76125.44, 76131.34, 76239.09, 76209.55, 29266.48, 29279.91, 29299.45, 29298.17, 0.00, 0.00, 0.00
197, 76102.41, 76108.65, 76216.59, 76186.55, 29267.08, 29280.29, 29300.10, 29298.58, 0.00, 0.00, 0.00
198, 75803.50, 75809.94, 75918.23, 75887.74, 29432.96, 29446.10, 29466.01, 29464.54, 0.00, 0.00, 0.00
199, 75753.41, 75759.52, 75867.74, 75837.56, 29444.09, 29457.70, 29477.30, 29476.07, 0.00, 0.00, 0.00
200, 76051.96, 76057.91, 76165.91, 76136.07, 29286.75, 29300.14, 29319.52, 29318.29, 0.00, 0.00, 0.00
201, 76120.61, 76126.64, 76234.82, 76205.12, 29249.96, 29263.21, 29282.86, 29281.66, -0.18, 0.60, 0.70
202, 75836.25, 75842.62, 75951.09, 75920.89, 29389.39, 29402.80, 29422.72, 29421.31, 0.00, 0.00, 0.00
203, 75705.94, 75712.15, 75820.58, 75790.43, 29451.80, 29465.41, 29485.26, 29483.89, 0.00, 0.00, 0.00
204, 75951.13, 75956.90, 76065.11, 76034.98, 29328.26, 29341.54, 29361.38, 29360.00, 0.00, 0.00, 0.00
205, 76094.14, 76100.06, 76208.13, 76178.25, 29259.53, 29272.85, 29292.50, 29291.20, 0.00, 0.00, 0.00
206, 75856.61, 75862.89, 75971.19, 75941.05, 29398.09, 29411.16, 29430.79, 29429.45, 0.00, 0.00, 0.00
207, 75675.25, 75681.48, 75789.71, 75759.47, 29513.55, 29526.79, 29546.64, 29545.00, 0.00, 0.00, 0.00
208, 75883.79, 75890.20, 75998.09, 75968.26, 29385.14, 29398.27, 29418.07, 29416.53, 0.00, 0.00, 0.00
209, 76087.13, 76093.61, 76201.66, 76172.09, 29275.35, 29288.92, 29308.37, 29306.98, 0.00, 0.00, 0.00
210, 75890.74, 75897.16, 76005.63, 75975.32, 29381.54, 29395.29, 29414.78, 29413.42, 0.00, 0.00, 0.00
211, 75676.59, 75682.98, 75791.50, 75760.92, 29493.66, 29507.41, 29527.21, 29525.74, 0.00, 0.00, 0.00
212, 75830.01, 75836.16, 75944.27, 75914.45, 29424.91, 29438.34, 29458.23, 29457.01, -0.21, 0.63, 0.72
213, 76073.80, 76080.13, 76188.06, 76158.07, 29323.07, 29336.57, 29356.29, 29354.95, 0.00, 0.00, 0.00
214, 75957.08, 75963.48, 76071.39, 76041.39, 29409.62, 29422.90, 29442.59, 29441.00, 0.00, 0.00, 0.00
215, 75688.86, 75695.30, 75803.63, 75773.06, 29561.25, 29574.53, 29594.13, 29592.79, 0.00, 0.00, 0.00
216, 75769.88, 75776.52, 75884.82, 75854.33, 29501.53, 29515.05, 29534.68, 29533.27, 0.00, 0.00, 0.00
217, 76061.27, 76067.43, 76175.57, 76145.59, 29333.78, 29347.26, 29366.86, 29365.25, 0.00, 0.00, 0.00
218, 76021.01, 76027.09, 76135.42, 76105.43, 29342.43, 29355.91, 29375.42, 29374.08, 0.00, 0.00, 0.00
219, 75714.59, 75720.82, 75829.20, 75798.95, 29493.26, 29506.83, 29526.74, 29525.04, 0.00, 0.00, 0.00
220, 75706.25, 75712.71, 75820.69, 75790.65, 29470.19, 29483.76, 29503.88, 29502.25, 0.00, 0.00, 0.00
221, 76017.19, 76023.60, 76131.18, 76101.27, 29306.33, 29319.95, 29339.46, 29338.09, 0.00, 0.00, 0.00
222, 76025.57, 76031.76, 76139.96, 76109.68, 29305.77, 29318.96, 29338.47, 29337.13, -0.24, 0.67, 0.66
223, 75744.13, 75751.04, 75859.54, 75828.94, 29447.69, 29461.03, 29480.41, 29479.00, 0.00, 0.00, 0.00
224, 75663.65, 75670.17, 75778.24, 75748.05, 29460.58, 29473.77, 29493.60, 29492.08, 0.00, 0.00, 0.00
225, 75927.66, 75933.77, 76041.46, 76011.59, 29307.18, 29320.77, 29340.29, 29338.88, 0.00, 0.00, 0.00
226, 76017.19, 76023.24, 76131.42, 76101.52, 29253.38, 29266.99, 29286.51, 29284.90, 0.00, 0.00, 0.00
227, 75744.54, 75750.64, 75859.78, 75829.32, 29397.97, 29411.38, 29431.21, 29429.29, 0.00, 0.00, 0.00
228, 75589.40, 75595.66, 75704.35, 75673.48, 29464.02, 29477.17, 29496.97, 29495.23, 0.00, 0.00, 0.00
229, 75859.60, 75865.80, 75973.82, 75943.58, 29328.91, 29342.16, 29361.72, 29360.38, 0.00, 0.00, 0.00
230, 76024.49, 76030.80, 76138.96, 76108.98, 29236.28, 29249.31, 29268.96, 29267.33, 0.00, 0.00, 0.00
231, 75777.75, 75784.37, 75892.75, 75862.34, 29363.73, 29376.99, 29396.61, 29394.82, 0.00, 0.00, 0.00
232, 75574.17, 75580.37, 75689.40, 75658.55, 29454.01, 29467.44, 29487.00, 29485.55, -0.26, 0.65, 0.63
233, 75784.81, 75790.88, 75899.28, 75868.81, 29318.58, 29332.04, 29351.44, 29349.94, 0.00, 0.00, 0.00
234, 76008.06, 76014.32, 76122.69, 76092.06, 29195.20, 29208.61, 29228.12, 29226.11, 0.00, 0.00, 0.00
235, 75817.88, 75824.58, 75932.77, 75902.21, 29305.55, 29319.07, 29338.68, 29336.73, 0.00, 0.00, 0.00
236, 75555.06, 75561.32, 75669.39, 75638.99, 29430.79, 29444.62, 29464.05, 29462.66, 0.00, 0.00, 0.00
237, 75697.78, 75703.92, 75811.88, 75781.53, 29337.22, 29350.81, 29370.08, 29368.92, 0.00, 0.00, 0.00
238, 75964.14, 75970.29, 76078.25, 76048.30, 29186.44, 29199.89, 29219.38, 29218.02, 0.00, 0.00, 0.00
239, 75837.81, 75844.02, 75952.59, 75922.30, 29256.33, 29269.54, 29289.32, 29287.65, 0.00, 0.00, 0.00
240, 75539.53, 75545.83, 75654.33, 75623.75, 29408.30, 29421.69, 29441.31, 29439.75, 0.00, 0.00, 0.00
241, 75630.32, 75636.45, 75744.60, 75714.38, 29357.85, 29371.17, 29390.78, 29389.14, 0.00, 0.00, 0.00
242, 75930.05, 75936.16, 76044.01, 76014.10, 29198.62, 29212.19, 29231.81, 29230.34, -0.21, 0.61, 0.71
243, 75857.10, 75863.25, 75971.70, 75941.32, 29228.91, 29242.38, 29261.92, 29260.53, 0.00, 0.00, 0.00
244, 75549.14, 75555.40, 75663.87, 75633.67, 29387.51, 29400.99, 29420.75, 29419.61, 0.00, 0.00, 0.00
245, 75530.48, 75536.33, 75644.76, 75614.59, 29373.50, 29386.64, 29406.07, 29405.15, 0.00, 0.00, 0.00
246, 75789.98, 75795.92, 75903.82, 75873.89, 29219.67, 29233.11, 29252.35, 29251.19, 0.00, 0.00, 0.00
247, 75814.19, 75820.34, 75928.52, 75898.20, 29214.98, 29228.12, 29247.79, 29246.29, 0.00, 0.00, 0.00
248, 75558.84, 75565.21, 75673.59, 75642.97, 29373.12, 29386.66, 29405.98, 29404.52, 0.00, 0.00, 0.00
249, 75523.95, 75530.16, 75638.59, 75607.86, 29419.79, 29433.16, 29452.65, 29451.24, 0.00, 0.00, 0.00
250, 75823.33, 75829.38, 75937.57, 75907.66, 29278.17, 29291.54, 29311.21, 29309.51, 0.00, 0.00, 0.00
251, 75953.93, 75959.74, 76068.13, 76037.95, 29197.84, 29211.07, 29230.87, 29229.22, 0.00, 0.00, 0.00
252, 75670.15, 75675.94, 75784.62, 75754.15, 29339.86, 29352.85, 29372.31, 29370.82, -0.19, 0.56, 0.73
253, 75536.58, 75542.66, 75650.88, 75620.40, 29400.28, 29413.13, 29432.80, 29431.17, 0.00, 0.00, 0.00
254, 75818.27, 75824.54, 75932.49, 75902.52, 29249.85, 29263.13, 29282.77, 29281.34, 0.00, 0.00, 0.00
255, 76009.98, 76015.91, 76124.27, 76094.41, 29146.76, 29159.93, 29179.82, 29178.50, 0.00, 0.00, 0.00
0, 75774.96, 75781.24, 75889.94, 75859.56, 29275.49, 29288.85, 29308.57, 29307.00, 0.00, 0.00, 0.00
1, 75563.42, 75569.99, 75678.51, 75647.76, 29364.80, 29378.13, 29397.66, 29396.39, 0.00, 0.00, 0.00
2, 75767.83, 75774.06, 75881.95, 75851.88, 29241.42, 29254.61, 29274.23, 29272.78, 0.00, 0.00, 0.00
3, 76025.45, 76031.71, 76139.83, 76109.72, 29106.91, 29120.21, 29139.54, 29138.07, 0.00, 0.00, 0.00
4, 75835.66, 75841.88, 75950.69, 75920.13, 29214.98, 29228.39, 29247.77, 29246.41, 0.00, 0.00, 0.00
5, 75583.92, 75590.24, 75698.80, 75668.09, 29347.84, 29361.27, 29380.67, 29379.20, 0.00, 0.00, 0.00
6, 75746.21, 75752.49, 75860.73, 75830.34, 29256.46, 29269.83, 29289.21, 29287.91, 0.00, 0.00, 0.00
7, 76030.46, 76036.90, 76144.99, 76114.82, 29103.78, 29117.19, 29136.59, 29135.21, -0.13, 0.60, 0.73
8, 75907.02, 75913.02, 76021.25, 75991.21, 29177.03, 29190.55, 29210.02, 29208.61, 0.00, 0.00, 0.00
9, 75609.53, 75615.55, 75724.16, 75693.48, 29328.91, 29342.34, 29361.79, 29360.51, 0.00, 0.00, 0.00
10, 75689.11, 75695.07, 75803.55, 75773.02, 29275.71, 29288.81, 29308.25, 29307.09, 0.00, 0.00, 0.00
11, 76009.07, 76015.24, 76123.65, 76092.98, 29119.20, 29132.68, 29151.72, 29150.50, 0.00, 0.00, 0.00
12, 75977.04, 75983.48, 76091.95, 76061.44, 29141.09, 29154.77, 29173.96, 29172.33, 0.00, 0.00, 0.00
13, 75661.28, 75667.72, 75776.28, 75745.70, 29294.29, 29307.65, 29327.28, 29325.51, 0.00, 0.00, 0.00
14, 75654.53, 75660.67, 75769.30, 75738.88, 29293.95, 29307.23, 29326.58, 29325.33, 0.00, 0.00, 0.00
15, 75984.62, 75990.74, 76099.02, 76068.93, 29123.70, 29137.15, 29156.55, 29155.14, 0.00, 0.00, 0.00
16, 76040.72, 76046.60, 76155.27, 76125.16, 29117.28, 29130.47, 29149.98, 29148.53, 0.00, 0.00, 0.00
17, 75700.73, 75707.16, 75815.80, 75785.40, 29281.97, 29295.22, 29314.51, 29313.22, -0.14, 0.60, 0.73
18, 75648.09, 75654.46, 75762.87, 75732.63, 29332.08, 29345.38, 29365.03, 29363.42, 0.00, 0.00, 0.00
19, 75966.16, 75972.82, 76080.73, 76051.09, 29186.44, 29199.54, 29219.50, 29217.86, 0.00, 0.00, 0.00
20, 76090.27, 76096.53, 76205.12, 76174.56, 29151.21, 29164.51, 29184.27, 29182.66, 0.00, 0.00, 0.00
21, 75813.45, 75819.41, 75928.45, 75897.54, 29326.00, 29339.26, 29358.86, 29357.36, 0.00, 0.00, 0.00
22, 75676.79, 75682.76, 75791.61, 75760.79, 29397.13, 29410.49, 29430.00, 29428.55, 0.00, 0.00, 0.00
23, 75930.73, 75936.98, 76045.10, 76014.88, 29277.05, 29290.31, 29309.64, 29308.37, 0.00, 0.00, 0.00
24, 76109.12, 76115.47, 76223.58, 76193.14, 29207.67, 29221.40, 29240.86, 29239.43, 0.00, 0.00, 0.00
25, 75902.63, 75908.82, 76017.56, 75986.92, 29318.98, 29332.17, 29351.84, 29350.54, 0.00, 0.00, 0.00
26, 75677.77, 75683.74, 75792.59, 75761.98, 29425.47, 29438.99, 29458.55, 29457.10, 0.00, 0.00, 0.00
27, 75905.16, 75911.23, 76019.42, 75989.13, 29318.63, 29332.24, 29352.00, 29350.25, -0.07, 0.57, 0.77
28, 76167.84, 76174.20, 76282.21, 76252.05, 29214.29, 29227.45, 29247.88, 29245.76, 0.00, 0.00, 0.00
29, 75983.79, 75989.76, 76098.32, 76068.10, 29321.51, 29335.01, 29354.46, 29353.20, 0.00, 0.00, 0.00
30, 75711.62, 75717.76, 75826.34, 75795.59, 29449.67, 29463.22, 29482.58, 29481.55, 0.00, 0.00, 0.00
31, 75850.44, 75856.66, 75964.81, 75934.35, 29367.11, 29380.76, 29400.28, 29398.89, 0.00, 0.00, 0.00
32, 76113.63, 76119.73, 76228.16, 76198.05, 29222.60, 29235.90, 29255.59, 29254.21, 0.00, 0.00, 0.00
33, 75993.09, 75999.57, 76108.07, 76077.80, 29289.43, 29302.33, 29321.91, 29321.15, 0.00, 0.00, 0.00
34, 75680.26, 75686.45, 75795.05, 75764.55, 29431.26, 29444.47, 29464.09, 29462.93, 0.00, 0.00, 0.00
35, 75721.02, 75727.20, 75835.42, 75805.07, 29379.78, 29393.30, 29412.57, 29411.07, 0.00, 0.00, 0.00
36, 76027.09, 76033.05, 76141.05, 76111.13, 29203.69, 29216.99, 29236.44, 29234.99, 0.00, 0.00, 0.00
37, 76018.26, 76024.12, 76132.50, 76102.45, 29236.66, 29250.10, 29269.29, 29268.13, -0.02, 0.53, 0.75
38, 75727.04, 75732.91, 75841.88, 75811.33, 29399.12, 29412.17, 29431.70, 29430.27, 0.00, 0.00, 0.00
39, 75740.36, 75746.13, 75854.53, 75824.40, 29377.70, 29391.18, 29410.45, 29408.95, 0.00, 0.00, 0.00
40, 76041.75, 76047.63, 76155.59, 76125.95, 29200.90, 29214.04, 29233.55, 29232.30, 0.00, 0.00, 0.00
41, 76076.28, 76082.27, 76190.75, 76160.75, 29164.04, 29177.54, 29197.01, 29195.33, 0.00, 0.00, 0.00
42, 75768.23, 75774.29, 75883.05, 75852.41, 29306.58, 29320.19, 29339.48, 29338.09, 0.00, 0.00, 0.00
43, 75680.39, 75686.47, 75794.80, 75764.66, 29335.55, 29349.20, 29368.38, 29367.02, 0.00, 0.00, 0.00
44, 75978.27, 75983.95, 76092.38, 76062.27, 29175.89, 29189.23, 29208.52, 29207.27, 0.00, 0.00, 0.00
45, 76123.22, 76129.46, 76237.75, 76207.35, 29134.13, 29147.41, 29166.66, 29165.16, 0.00, 0.00, 0.00
46, 75861.66, 75867.80, 75976.73, 75946.33, 29286.10, 29299.34, 29319.03, 29317.35, 0.00, 0.00, 0.00
47, 75723.48, 75729.90, 75838.53, 75808.24, 29377.68, 29391.00, 29410.96, 29409.15, 0.00, 0.00, 0.00
48, 75995.41, 76001.67, 76109.74, 76079.93, 29255.84, 29269.32, 29289.28, 29287.29, -0.11, 0.61, 1.28
49, 76195.59, 76201.61, 76310.17, 76280.09, 29159.84, 29173.18, 29192.83, 29191.38, 0.00, 0.00, 0.00
50, 75959.45, 75965.27, 76074.52, 76044.09, 29269.00, 29282.55, 29301.93, 29300.43, 0.00, 0.00, 0.00
51, 75720.51, 75726.57, 75835.66, 75804.98, 29406.78, 29420.33, 29439.93, 29438.19, 0.00, 0.00, 0.00
52, 75924.00, 75930.17, 76038.48, 76008.22, 29320.30, 29333.76, 29353.14, 29351.97, 0.00, 0.00, 0.00
53, 76163.81, 76170.05, 76278.41, 76248.34, 29198.80, 29212.46, 29231.70, 29230.52, 0.00, 0.00, 0.00
54, 75978.34, 75984.62, 76093.74, 76063.27, 29310.49, 29324.04, 29343.64, 29342.32, 0.00, 0.00, 0.00
55, 75737.25, 75743.53, 75852.43, 75821.74, 29444.49, 29457.83, 29477.52, 29476.29, 0.00, 0.00, 0.00
56, 75878.67, 75884.82, 75993.49, 75963.09, 29396.37, 29409.71, 29429.13, 29427.95, 0.00, 0.00, 0.00
57, 76166.41, 76172.48, 76281.18, 76250.91, 29270.23, 29283.67, 29303.07, 29301.82, 0.00, 0.00, 0.00
58, 76068.21, 76074.20, 76183.05, 76152.52, 29341.16, 29354.68, 29374.06, 29372.61, -0.10, 0.65, 1.04
59, 75767.96, 75774.06, 75882.96, 75852.41, 29504.12, 29517.80, 29537.36, 29535.64, 0.00, 0.00, 0.00
60, 75818.75, 75825.01, 75933.59, 75903.21, 29470.13, 29483.43, 29503.38, 29501.82, 0.00, 0.00, 0.00
61, 76124.09, 76129.97, 76238.35, 76208.07, 29306.56, 29319.65, 29339.75, 29338.14, 0.00, 0.00, 0.00
62, 76101.67, 76107.76, 76216.56, 76186.16, 29328.62, 29342.16, 29361.68, 29360.31, 0.00, 0.00, 0.00
63, 75791.84, 75798.14, 75907.10, 75876.41, 29477.95, 29491.63, 29511.41, 29509.93, 0.00, 0.00, 0.00
64, 75767.92, 75774.18, 75882.90, 75852.41, 29467.58, 29481.30, 29501.04, 29499.63, 0.00, 0.00, 0.00
65, 76052.10, 76058.49, 76166.56, 76136.72, 29304.52, 29317.91, 29337.65, 29336.24, 0.00, 0.00, 0.00
66, 76083.57, 76089.83, 76198.30, 76168.08, 29265.54, 29278.79, 29298.24, 29296.95, 0.00, 0.00, 0.00
67, 75786.02, 75792.10, 75900.73, 75870.05, 29412.64, 29425.67, 29445.70, 29444.09, 0.00, 0.00, 0.00
68, 75681.62, 75687.56, 75795.91, 75765.35, 29455.33, 29468.38, 29488.07, 29487.05, -0.10, 0.69, 0.89
69, 75933.77, 75940.09, 76047.83, 76017.92, 29331.21, 29344.38, 29363.60, 29362.59, 0.00, 0.00, 0.00
70, 76060.50, 76066.65, 76175.21, 76144.97, 29272.04, 29285.50, 29304.81, 29303.43, 0.00, 0.00, 0.00
71, 75783.16, 75789.47, 75898.30, 75867.79, 29401.66, 29415.36, 29434.72, 29433.36, 0.00, 0.00, 0.00
72, 75618.48, 75624.95, 75733.43, 75703.03, 29474.42, 29488.10, 29507.41, 29506.25, 0.00, 0.00, 0.00
73, 75862.34, 75868.59, 75976.82, 75946.71, 29353.38, 29367.26, 29386.55, 29385.19, 0.00, 0.00, 0.00
74, 76067.66, 76074.00, 76182.21, 76152.15, 29267.33, 29281.03, 29300.21, 29299.13, 0.00, 0.00, 0.00
75, 75877.35, 75883.45, 75992.33, 75961.69, 29379.89, 29393.39, 29413.20, 29411.74, 0.00, 0.00, 0.00
76, 75637.41, 75643.58, 75752.25, 75721.70, 29491.49, 29504.70, 29524.60, 29522.90, 0.00, 0.00, 0.00
77, 75818.86, 75825.07, 75933.30, 75903.03, 29393.30, 29406.29, 29425.94, 29424.64, 0.00, 0.00, 0.00
78, 76095.75, 76101.70, 76210.26, 76180.38, 29260.69, 29273.88, 29293.39, 29292.27, -0.08, 0.61, 0.79
79, 75957.64, 75963.52, 76072.59, 76042.53, 29344.15, 29357.50, 29377.10, 29375.73, 0.00, 0.00, 0.00
80, 75679.41, 75685.51, 75794.09, 75763.94, 29494.33, 29507.54, 29527.14, 29525.78, 0.00, 0.00, 0.00
81, 75773.51, 75780.05, 75888.30, 75857.93, 29445.09, 29458.23, 29477.95, 29476.65, 0.00, 0.00, 0.00
82, 76085.76, 76091.88, 76200.24, 76169.96, 29304.25, 29317.26, 29337.09, 29336.08, 0.00, 0.00, 0.00
83, 76027.29, 76033.23, 76142.20, 76111.24, 29340.24, 29353.83, 29373.39, 29372.40, 0.00, 0.00, 0.00
84, 75699.73, 75705.94, 75815.35, 75784.05, 29512.30, 29525.94, 29545.50, 29544.06, 0.00, 0.00, 0.00
85, 75754.48, 75760.81, 75869.17, 75838.77, 29480.29, 29493.55, 29513.15, 29511.90, 0.00, 0.00, 0.00
86, 76080.93, 76087.03, 76195.30, 76165.40, 29299.27, 29312.52, 29332.28, 29330.79, 0.00, 0.00, 0.00
87, 76095.98, 76102.23, 76211.13, 76180.66, 29293.14, 29306.69, 29326.22, 29324.55, 0.00, 0.00, 0.00
88, 75783.01, 75789.31, 75898.43, 75867.54, 29438.92, 29452.04, 29471.51, 29470.13, -0.08, 0.60, 0.75
89, 75753.03, 75759.47, 75868.16, 75837.43, 29452.40, 29465.57, 29485.44, 29483.87, 0.00, 0.00, 0.00
90, 76054.06, 76060.21, 76168.39, 76138.16, 29276.16, 29289.37, 29309.35, 29307.52, 0.00, 0.00, 0.00
91, 76136.32, 76142.49, 76251.09, 76220.70, 29237.56, 29250.79, 29270.44, 29268.85, 0.00, 0.00, 0.00
92, 75859.60, 75865.66, 75974.90, 75944.25, 29382.51, 29395.76, 29415.12, 29413.78, 0.00, 0.00, 0.00
93, 75750.30, 75756.63, 75865.41, 75834.84, 29441.70, 29455.04, 29474.33, 29473.21, 0.00, 0.00, 0.00
94, 76028.41, 76034.66, 76143.09, 76113.12, 29285.68, 29299.09, 29318.42, 29317.42, 0.00, 0.00, 0.00
95, 76183.08, 76189.30, 76297.86, 76267.91, 29216.10, 29229.91, 29249.31, 29247.79, 0.00, 0.00, 0.00
96, 75924.38, 75931.06, 76039.65, 76009.30, 29351.33, 29364.87, 29384.07, 29382.48, 0.00, 0.00, 0.00
97, 75729.36, 75735.44, 75844.14, 75813.83, 29427.88, 29441.34, 29460.80, 29459.11, 0.00, 0.00, 0.00
98, 75970.49, 75976.39, 76084.84, 76054.71, 29298.91, 29312.35, 29331.95, 29330.40, 0.00, 0.00, 0.00
99, 76196.67, 76202.64, 76311.47, 76281.12, 29185.77, 29199.40, 29218.78, 29217.39, -0.13, 0.60, 0.77
100, 76000.45, 76006.44, 76115.47, 76084.87, 29299.36, 29312.97, 29332.48, 29330.70, 0.00, 0.00, 0.00
101, 75753.93, 75760.37, 75868.63, 75838.41, 29425.71, 29439.15, 29459.08, 29457.21, 0.00, 0.00, 0.00
102, 75924.02, 75930.64, 76038.77, 76008.60, 29315.77, 29329.24, 29348.80, 29347.33, 0.00, 0.00, 0.00
103, 76196.70, 76203.13, 76311.31, 76281.02, 29179.82, 29193.57, 29212.86, 29211.45, 0.00, 0.00, 0.00
104, 76048.41, 76054.78, 76163.57, 76132.99, 29263.91, 29277.74, 29297.12, 29295.58, 0.00, 0.00, 0.00
105, 75751.80, 75757.99, 75866.87, 75836.07, 29412.41, 29425.87, 29445.18, 29443.79, 0.00, 0.00, 0.00
106, 75857.33, 75863.74, 75971.95, 75941.68, 29363.40, 29376.47, 29396.07, 29394.71, 0.00, 0.00, 0.00
107, 76152.05, 76158.41, 76266.54, 76236.43, 29208.54, 29221.87, 29241.38, 29240.15, 0.00, 0.00, 0.00
108, 76109.84, 76115.80, 76224.54, 76194.08, 29246.70, 29260.13, 29279.58, 29278.08, 0.00, 0.00, 0.00
109, 75808.82, 75814.63, 75923.93, 75893.09, 29406.80, 29420.21, 29439.62, 29438.30, -0.16, 0.62, 0.78
110, 75836.70, 75842.69, 75951.41, 75920.96, 29401.15, 29414.54, 29433.94, 29432.46, 0.00, 0.00, 0.00
111, 76143.25, 76149.17, 76257.73, 76228.03, 29253.94, 29267.28, 29286.62, 29285.34, 0.00, 0.00, 0.00
112, 76151.54, 76157.46, 76266.27, 76236.41, 29255.37, 29268.89, 29288.23, 29286.86, 0.00, 0.00, 0.00
113, 75855.16, 75861.23, 75970.27, 75939.83, 29406.54, 29419.95, 29439.50, 29438.01, 0.00, 0.00, 0.00
114, 75760.12, 75766.58, 75875.48, 75844.67, 29447.39, 29460.69, 29480.47, 29478.89, 0.00, 0.00, 0.00
115, 76079.32, 76085.52, 76193.90, 76163.74, 29274.23, 29287.49, 29307.23, 29305.77, 0.00, 0.00, 0.00
116, 76177.36, 76183.55, 76292.09, 76261.94, 29228.37, 29241.80, 29261.45, 29260.00, 0.00, 0.00, 0.00
117, 75887.01, 75893.20, 76002.12, 75971.79, 29382.57, 29396.19, 29415.88, 29414.18, 0.00, 0.00, 0.00
118, 75760.92, 75766.96, 75875.88, 75845.32, 29441.05, 29454.93, 29474.26, 29472.88, 0.00, 0.00, 0.00
119, 76041.23, 76047.25, 76155.59, 76125.41, 29299.60, 29313.28, 29332.89, 29331.28, -0.12, 0.62, 0.74
120, 76207.40, 76213.27, 76322.06, 76291.66, 29216.05, 29229.29, 29248.73, 29247.64, 0.00, 0.00, 0.00
121, 75952.09, 75958.22, 76067.25, 76036.54, 29352.40, 29365.45, 29384.92, 29384.05, 0.00, 0.00, 0.00
122, 75756.50, 75762.55, 75871.38, 75840.90, 29446.57, 29460.22, 29479.58, 29478.06, 0.00, 0.00, 0.00
123, 75990.54, 75996.82, 76105.09, 76074.88, 29322.54, 29335.97, 29355.35, 29353.85, 0.00, 0.00, 0.00
124, 76219.80, 76226.24, 76334.70, 76304.23, 29206.33, 29220.03, 29239.37, 29237.94, 0.00, 0.00, 0.00
125, 76018.21, 76024.59, 76133.57, 76102.77, 29302.85, 29316.23, 29335.84, 29334.41, 0.00, 0.00, 0.00
126, 75767.02, 75773.22, 75882.36, 75851.63, 29429.45, 29442.92, 29462.32, 29460.85, 0.00, 0.00, 0.00
127, 75945.62, 75951.76, 76060.26, 76030.33, 29333.94, 29347.26, 29366.79, 29365.38, 0.00, 0.00, 0.00
128, 76211.04, 76217.08, 76325.39, 76295.33, 29188.67, 29201.77, 29221.28, 29219.94, 0.00, 0.00, 0.00
129, 76082.27, 76088.20, 76197.18, 76166.65, 29271.38, 29284.72, 29304.10, 29302.64, -0.08, 0.60, 0.65
130, 75799.26, 75805.34, 75914.37, 75883.48, 29426.63, 29440.15, 29459.67, 29458.12, 0.00, 0.00, 0.00
131, 75894.70, 75901.13, 76009.74, 75979.52, 29380.50, 29393.97, 29413.31, 29412.12, 0.00, 0.00, 0.00
132, 76194.68, 76200.67, 76309.14, 76279.35, 29216.66, 29230.13, 29249.56, 29248.31, 0.00, 0.00, 0.00
133, 76131.02, 76136.88, 76245.98, 76215.27, 29249.92, 29263.33, 29282.86, 29281.75, 0.00, 0.00, 0.00
134, 75814.19, 75820.60, 75929.61, 75898.99, 29413.98, 29427.08, 29447.13, 29445.54, 0.00, 0.00, 0.00
135, 75825.48, 75831.51, 75940.18, 75909.88, 29391.72, 29405.13, 29424.82, 29423.21, 0.00, 0.00, 0.00
136, 76139.05, 76145.06, 76253.38, 76223.45, 29203.78, 29216.86, 29236.62, 29235.21, 0.00, 0.00, 0.00
137, 76161.48, 76167.77, 76276.91, 76246.42, 29176.42, 29189.66, 29209.15, 29207.61, 0.00, 0.00, 0.00
138, 75861.62, 75867.83, 75976.86, 75946.13, 29326.61, 29340.04, 29359.35, 29357.76, 0.00, 0.00, 0.00
139, 75800.87, 75806.72, 75915.66, 75885.09, 29344.06, 29357.36, 29376.81, 29375.29, 0.00, 0.00, 0.00
140, 76105.25, 76111.27, 76219.58, 76189.38, 29184.27, 29197.50, 29217.46, 29215.52, -0.15, 0.60, 0.63
141, 76186.73, 76192.60, 76301.50, 76271.03, 29165.11, 29178.50, 29198.26, 29196.61, 0.00, 0.00, 0.00
142, 75881.20, 75887.26, 75996.30, 75965.66, 29303.05, 29316.19, 29336.11, 29334.23, 0.00, 0.00, 0.00
143, 75746.88, 75753.13, 75861.88, 75831.06, 29344.87, 29357.81, 29377.86, 29376.23, 0.00, 0.00, 0.00
144, 75987.05, 75993.36, 76101.63, 76071.45, 29219.70, 29233.29, 29252.76, 29251.08, 0.00, 0.00, 0.00
145, 76177.34, 76183.75, 76292.02, 76261.80, 29119.43, 29132.68, 29152.28, 29150.56, 0.00, 0.00, 0.00
146, 75939.09, 75945.44, 76054.27, 76023.66, 29247.10, 29260.29, 29279.82, 29278.33, 0.00, 0.00, 0.00
147, 75729.36, 75735.38, 75844.34, 75813.52, 29354.48, 29367.87, 29387.25, 29385.90, 0.00, 0.00, 0.00
148, 75951.76, 75957.95, 76066.29, 76035.98, 29234.18, 29247.35, 29266.61, 29265.09, 0.00, 0.00, 0.00
149, 76199.46, 76205.50, 76314.06, 76283.51, 29121.33, 29134.60, 29153.96, 29152.60, 0.00, 0.00, 0.00
150, 76004.00, 76010.39, 76119.29, 76088.60, 29234.81, 29248.22, 29267.78, 29266.55, -0.21, 0.64, 0.69
151, 75747.38, 75753.73, 75862.60, 75831.87, 29373.83, 29387.49, 29406.94, 29405.33, 0.00, 0.00, 0.00
152, 75912.98, 75918.84, 76027.38, 75997.02, 29297.97, 29311.16, 29330.79, 29328.93, 0.00, 0.00, 0.00
153, 76194.88, 76200.76, 76309.44, 76279.10, 29161.52, 29174.68, 29194.35, 29192.63, 0.00, 0.00, 0.00
154, 76059.36, 76065.73, 76174.54, 76143.80, 29240.10, 29253.69, 29272.92, 29271.40, 0.00, 0.00, 0.00
155, 75770.06, 75776.48, 75885.35, 75854.53, 29387.85, 29401.42, 29420.68, 29419.34, 0.00, 0.00, 0.00
156, 75858.40, 75864.81, 75973.29, 75943.09, 29302.76, 29316.19, 29335.57, 29334.29, 0.00, 0.00, 0.00
157, 76175.23, 76181.60, 76289.66, 76259.66, 29108.36, 29121.60, 29141.20, 29139.63, 0.00, 0.00, 0.00
158, 76130.35, 76136.39, 76245.04, 76214.84, 29129.15, 29142.43, 29161.74, 29160.49, 0.00, 0.00, 0.00
159, 75810.23, 75816.53, 75925.38, 75894.56, 29262.10, 29275.49, 29294.84, 29293.61, 0.00, 0.00, 0.00
160, 75812.60, 75818.92, 75927.58, 75896.82, 29175.04, 29187.98, 29207.76, 29206.08, -0.26, 0.66, 0.70
161, 76127.60, 76133.59, 76241.77, 76211.65, 28903.46, 28916.74, 28936.32, 28934.53, 0.00, 0.00, 0.00
162, 76154.38, 76160.28, 76269.09, 76238.69, 28771.52, 28785.11, 28804.31, 28802.48, 0.00, 0.00, 0.00
163, 75850.33, 75856.54, 75965.46, 75934.70, 28895.53, 28909.16, 28928.45, 28926.42, 0.00, 0.00, 0.00
164, 75791.05, 75797.27, 75906.16, 75875.48, 28955.10, 28968.78, 28987.93, 28986.32, 0.00, 0.00, 0.00
165, 76097.31, 76103.55, 76212.14, 76181.88, 28870.00, 28883.64, 28902.93, 28901.18, 0.00, 0.00, 0.00
166, 76216.92, 76223.38, 76331.74, 76301.61, 28887.93, 28901.41, 28920.68, 28919.16, 0.00, 0.00, 0.00
167, 75942.04, 75948.34, 76057.38, 76026.84, 29107.04, 29120.59, 29139.77, 29138.47, 0.00, 0.00, 0.00
168, 75792.13, 75798.54, 75907.21, 75876.70, 29223.77, 29237.36, 29256.49, 29255.19, 0.00, 0.00, 0.00
169, 76068.75, 76074.80, 76183.26, 76153.17, 29129.20, 29142.74, 29162.28, 29160.35, 0.00, 0.00, 0.00
170, 76267.50, 76273.67, 76382.08, 76351.95, 29067.06, 29080.40, 29100.14, 29098.13, -0.22, 0.72, 0.71
171, 76004.47, 76010.77, 76119.78, 76089.00, 29198.11, 29211.81, 29231.07, 29229.84, 0.00, 0.00, 0.00
172, 75791.66, 75797.96, 75906.74, 75876.33, 29322.67, 29336.17, 29355.82, 29354.37, 0.00, 0.00, 0.00
173, 76019.87, 76025.95, 76134.48, 76104.49, 29213.01, 29226.36, 29245.80, 29244.35, 0.00, 0.00, 0.00
174, 76234.29, 76240.28, 76348.86, 76318.71, 29125.04, 29138.72, 29157.76, 29156.44, 0.00, 0.00, 0.00
175, 76061.82, 76067.74, 76176.71, 76146.16, 29230.81, 29244.08, 29263.55, 29262.03, 0.00, 0.00, 0.00
176, 75806.50, 75812.63, 75921.59, 75890.96, 29382.28, 29395.63, 29415.21, 29413.84, 0.00, 0.00, 0.00
177, 75950.87, 75957.10, 76065.69, 76035.24, 29305.93, 29319.21, 29338.74, 29337.58, 0.00, 0.00, 0.00
178, 76245.64, 76251.84, 76360.30, 76330.06, 29178.99, 29192.63, 29212.01, 29210.62, 0.00, 0.00, 0.00
179, 76129.52, 76135.72, 76244.86, 76214.46, 29257.18, 29270.97, 29290.26, 29288.63, 0.00, 0.00, 0.00
180, 75827.75, 75834.30, 75942.95, 75912.51, 29409.91, 29423.63, 29442.83, 29441.45, 0.00, 0.00, 0.00
181, 75900.73, 75907.15, 76015.62, 75985.52, 29363.80, 29377.39, 29396.63, 29395.43, -0.19, 0.76, 0.65
182, 76215.71, 76221.99, 76330.24, 76300.54, 29173.27, 29186.48, 29205.91, 29204.70, 0.00, 0.00, 0.00
183, 76163.99, 76170.18, 76279.08, 76248.68, 29158.81, 29171.91, 29191.47, 29190.10, 0.00, 0.00, 0.00
184, 75858.53, 75865.02, 75973.87, 75942.98, 29311.50, 29325.17, 29344.62, 29343.32, 0.00, 0.00, 0.00
185, 75868.59, 75874.88, 75983.59, 75953.17, 29324.79, 29338.52, 29357.99, 29356.67, 0.00, 0.00, 0.00
186, 76187.80, 76193.72, 76302.30, 76272.22, 29169.63, 29183.00, 29202.69, 29200.97, 0.00, 0.00, 0.00
187, 76231.70, 76237.75, 76346.47, 76315.98, 29141.67, 29155.12, 29174.68, 29172.83, 0.00, 0.00, 0.00
188, 75921.70, 75928.02, 76037.21, 76006.30, 29307.36, 29320.75, 29340.51, 29338.70, 0.00, 0.00, 0.00
189, 75835.80, 75842.10, 75950.64, 75920.29, 29348.51, 29361.94, 29381.63, 29380.12, 0.00, 0.00, 0.00
190, 76145.04, 76151.30, 76259.63, 76229.75, 29191.78, 29205.01, 29224.86, 29223.41, 0.00, 0.00, 0.00
191, 76281.49, 76287.75, 76396.34, 76366.25, 29120.01, 29133.33, 29152.84, 29151.23, -0.16, 0.72, 0.56
192, 76012.42, 76018.62, 76127.58, 76096.87, 29263.26, 29276.34, 29296.07, 29294.40, 0.00, 0.00, 0.00
193, 75850.11, 75856.41, 75965.28, 75934.38, 29339.90, 29353.32, 29373.12, 29371.40, 0.00, 0.00, 0.00
194, 76108.72, 76114.86, 76223.40, 76193.20, 29214.40, 29227.95, 29247.75, 29245.98, 0.00, 0.00, 0.00
195, 76302.91, 76309.32, 76418.00, 76387.95, 29138.05, 29151.72, 29171.04, 29169.79, 0.00, 0.00, 0.00
196, 76074.49, 76080.77, 76189.83, 76159.63, 29274.48, 29287.76, 29306.96, 29305.77, 0.00, 0.00, 0.00
197, 75845.91, 75852.05, 75961.20, 75930.64, 29373.72, 29387.07, 29406.49, 29405.22, 0.00, 0.00, 0.00
198, 76043.91, 76049.93, 76158.49, 76128.38, 29260.91, 29274.55, 29294.15, 29292.56, 0.00, 0.00, 0.00
199, 76293.85, 76300.38, 76408.61, 76378.55, 29142.03, 29155.64, 29175.35, 29173.56, 0.00, 0.00, 0.00
200, 76135.05, 76141.70, 76250.60, 76219.80, 29255.93, 29269.36, 29289.30, 29287.62, 0.00, 0.00, 0.00
201, 75869.48, 75875.97, 75985.13, 75953.91, 29408.52, 29422.05, 29441.90, 29440.26, -0.13, 0.74, 0.55
202, 76013.09, 76019.27, 76127.94, 76097.36, 29341.22, 29354.41, 29374.13, 29372.74, 0.00, 0.00, 0.00
203, 76321.70, 76327.67, 76436.23, 76406.13, 29179.26, 29192.23, 29211.85, 29210.73, 0.00, 0.00, 0.00
204, 76187.38, 76193.59, 76302.70, 76272.35, 29244.22, 29257.47, 29277.37, 29276.00, 0.00, 0.00, 0.00
205, 75912.42, 75918.50, 76027.69, 75997.36, 29396.63, 29410.27, 29429.94, 29428.33, 0.00, 0.00, 0.00
206, 75985.80, 75991.84, 76100.60, 76070.34, 29341.36, 29354.41, 29374.17, 29372.78, 0.00, 0.00, 0.00
207, 76293.09, 76299.22, 76407.80, 76377.72, 29178.28, 29191.69, 29211.27, 29209.91, 0.00, 0.00, 0.00
208, 76260.53, 76266.63, 76375.82, 76345.30, 29208.61, 29222.09, 29241.51, 29240.06, 0.00, 0.00, 0.00
209, 75956.99, 75962.98, 76072.22, 76041.59, 29366.01, 29379.36, 29398.87, 29397.39, 0.00, 0.00, 0.00
210, 75932.47, 75938.57, 76047.20, 76016.89, 29360.22, 29374.01, 29393.26, 29391.94, 0.00, 0.00, 0.00
211, 76236.84, 76242.78, 76351.34, 76321.23, 29208.65, 29222.24, 29241.74, 29240.37, -0.10, 0.73, 0.58
212, 76286.77, 76292.63, 76401.41, 76371.33, 29175.91, 29189.43, 29209.17, 29207.52, 0.00, 0.00, 0.00
213, 75978.18, 75984.20, 76093.18, 76062.63, 29335.05, 29348.76, 29368.09, 29366.64, 0.00, 0.00, 0.00
214, 75890.09, 75896.11, 76005.00, 75974.65, 29388.36, 29401.86, 29421.09, 29420.01, 0.00, 0.00, 0.00
215, 76175.99, 76181.98, 76290.37, 76260.38, 29229.60, 29243.55, 29263.10, 29261.76, 0.00, 0.00, 0.00
216, 76310.69, 76316.72, 76425.24, 76395.16, 29162.48, 29176.02, 29195.63, 29194.04, 0.00, 0.00, 0.00
217, 76039.88, 76045.86, 76154.88, 76124.25, 29306.51, 29319.90, 29339.44, 29337.96, 0.00, 0.00, 0.00
218, 75883.70, 75889.89, 75998.97, 75967.85, 29391.49, 29404.95, 29424.64, 29423.08, 0.00, 0.00, 0.00
219, 76146.76, 76153.42, 76261.53, 76231.29, 29253.87, 29267.33, 29287.00, 29285.54, 0.00, 0.00, 0.00
220, 76350.74, 76356.80, 76465.27, 76435.27, 29163.75, 29177.12, 29196.72, 29195.15, 0.00, 0.00, 0.00
221, 76121.52, 76127.96, 76236.92, 76206.55, 29289.95, 29303.20, 29322.63, 29321.33, -0.14, 0.74, 0.61
222, 75919.06, 75925.59, 76034.53, 76003.88, 29404.19, 29417.58, 29436.69, 29435.35, 0.00, 0.00, 0.00
223, 76109.03, 76115.27, 76223.65, 76193.49, 29297.79, 29311.43, 29330.76, 29329.24, 0.00, 0.00, 0.00
224, 76368.78, 76374.74, 76483.11, 76453.49, 29176.13, 29189.43, 29209.35, 29207.61, 0.00, 0.00, 0.00
225, 76204.36, 76210.13, 76319.38, 76289.05, 29289.70, 29303.16, 29323.03, 29321.24, 0.00, 0.00, 0.00
226, 75934.53, 75940.95, 76050.35, 76019.45, 29445.81, 29459.35, 29479.02, 29477.48, 0.00, 0.00, 0.00
227, 76053.22, 76059.61, 76168.73, 76138.13, 29384.74, 29398.15, 29417.76, 29416.28, 0.00, 0.00, 0.00
228, 76343.59, 76349.89, 76458.63, 76428.50, 29244.73, 29258.12, 29277.68, 29276.29, 0.00, 0.00, 0.00
229, 76251.09, 76257.40, 76366.05, 76335.92, 29298.42, 29311.99, 29331.37, 29330.32, 0.00, 0.00, 0.00
230, 75956.55, 75962.85, 76071.50, 76041.19, 29455.37, 29468.85, 29488.34, 29486.89, 0.00, 0.00, 0.00
231, 75997.13, 76003.39, 76111.94, 76081.55, 29447.37, 29460.78, 29480.03, 29478.57, 0.00, 0.00, 0.00
232, 76282.05, 76288.29, 76396.83, 76366.88, 29317.49, 29330.88, 29350.28, 29349.02, -0.19, 0.75, 0.63
233, 76277.02, 76283.08, 76391.95, 76361.71, 29318.31, 29331.81, 29351.59, 29349.81, 0.00, 0.00, 0.00
234, 75939.55, 75945.77, 76055.09, 76024.38, 29487.49, 29500.86, 29520.37, 29518.83, 0.00, 0.00, 0.00
235, 75915.26, 75921.38, 76030.46, 75999.82, 29499.05, 29512.24, 29531.82, 29530.30, 0.00, 0.00, 0.00
236, 76237.53, 76243.81, 76352.26, 76322.24, 29337.65, 29350.83, 29370.44, 29368.98, 0.00, 0.00, 0.00
237, 76288.70, 76295.17, 76403.98, 76373.45, 29288.25, 29301.62, 29321.38, 29319.86, 0.00, 0.00, 0.00
238, 75984.46, 75991.03, 76100.38, 76069.53, 29428.31, 29441.85, 29461.43, 29460.25, 0.00, 0.00, 0.00
239, 75888.39, 75894.74, 76003.84, 75973.58, 29461.45, 29474.87, 29494.20, 29493.01, 0.00, 0.00, 0.00
240, 76178.37, 76184.78, 76293.41, 76263.21, 29314.13, 29327.75, 29347.04, 29345.63, 0.00, 0.00, 0.00
241, 76311.40, 76317.64, 76426.45, 76396.54, 29241.96, 29255.62, 29275.11, 29273.50, 0.00, 0.00, 0.00
242, 76043.38, 76049.70, 76158.90, 76128.52, 29364.13, 29377.70, 29397.21, 29395.54, -0.11, 0.74, 0.63
243, 75875.74, 75882.13, 75990.95, 75960.37, 29449.03, 29462.46, 29482.11, 29480.50, 0.00, 0.00, 0.00
244, 76103.87, 76110.62, 76219.13, 76188.80, 29302.98, 29316.08, 29335.79, 29334.29, 0.00, 0.00, 0.00
245, 76301.61, 76308.14, 76416.86, 76386.59, 29188.56, 29201.90, 29221.08, 29219.90, 0.00, 0.00, 0.00
246, 76092.22, 76098.05, 76207.27, 76176.93, 29301.37, 29314.67, 29334.00, 29332.62, 0.00, 0.00, 0.00
247, 75869.64, 75875.74, 75984.66, 75954.27, 29418.54, 29432.08, 29451.46, 29450.19, 0.00, 0.00, 0.00
248, 76060.73, 76067.34, 76175.66, 76145.15, 29314.56, 29327.86, 29347.17, 29345.96, 0.00, 0.00, 0.00
249, 76314.84, 76321.44, 76429.58, 76399.58, 29176.65, 29189.90, 29209.82, 29208.16, 0.00, 0.00, 0.00
250, 76163.08, 76169.02, 76278.32, 76247.74, 29269.12, 29282.24, 29301.77, 29300.52, 0.00, 0.00, 0.00
251, 75898.68, 75904.82, 76014.37, 75983.52, 29412.06, 29425.38, 29445.00, 29443.39, 0.00, 0.00, 0.00
252, 76018.37, 76024.61, 76133.17, 76103.06, 29338.09, 29351.39, 29370.95, 29369.32, -0.09, 0.75, 0.59
253, 76309.77, 76315.36, 76424.01, 76394.15, 29188.58, 29201.86, 29221.42, 29219.72, 0.00, 0.00, 0.00
254, 76217.41, 76223.34, 76332.57, 76302.30, 29233.71, 29247.28, 29266.79, 29265.27, 0.00, 0.00, 0.00
255, 75926.26, 75932.30, 76041.52, 76010.77, 29386.57, 29400.10, 29419.66, 29418.05, 0.00, 0.00, 0.00
0, 75975.56, 75981.98, 76090.45, 76059.97, 29360.71, 29374.28, 29393.86, 29392.16, 0.00, 0.00, 0.00
1, 76267.66, 76274.23, 76382.44, 76352.20, 29207.43, 29220.75, 29240.19, 29238.65, 0.00, 0.00, 0.00
2, 76263.19, 76269.42, 76378.41, 76347.92, 29204.88, 29217.78, 29237.49, 29236.06, 0.00, 0.00, 0.00
3, 75982.49, 75988.53, 76098.03, 76067.25, 29352.44, 29365.63, 29385.64, 29383.92, 0.00, 0.00, 0.00
4, 75955.12, 75961.15, 76069.89, 76039.83, 29358.99, 29372.74, 29391.89, 29390.40, 0.00, 0.00, 0.00
5, 76246.00, 76252.02, 76360.44, 76330.55, 29211.56, 29224.97, 29244.13, 29242.96, 0.00, 0.00, 0.00
6, 76289.83, 76296.13, 76405.03, 76374.88, 29180.00, 29193.30, 29212.63, 29211.47, -0.07, 0.75, 0.61
7, 76019.04, 76025.23, 76134.60, 76103.75, 29306.62, 29319.70, 29339.53, 29337.83, 0.00, 0.00, 0.00
8, 75897.72, 75903.91, 76013.01, 75982.31, 29367.60, 29380.90, 29400.61, 29399.16, 0.00, 0.00, 0.00
9, 76147.72, 76153.91, 76262.32, 76232.09, 29240.39, 29253.72, 29273.43, 29271.91, 0.00, 0.00, 0.00
10, 76290.84, 76296.83, 76405.50, 76375.23, 29151.23, 29164.55, 29184.00, 29182.66, 0.00, 0.00, 0.00
11, 76050.73, 76057.02, 76166.27, 76135.45, 29279.67, 29292.99, 29312.35, 29311.25, 0.00, 0.00, 0.00
12, 75882.13, 75888.75, 75997.91, 75967.03, 29367.91, 29381.17, 29400.39, 29399.29, 0.00, 0.00, 0.00
13, 76104.60, 76110.77, 76219.49, 76189.18, 29236.08, 29249.25, 29268.87, 29267.62, 0.00, 0.00, 0.00
14, 76302.88, 76308.85, 76417.77, 76387.40, 29139.28, 29152.13, 29172.02, 29170.66, 0.00, 0.00, 0.00
15, 76111.06, 76116.94, 76226.27, 76195.59, 29254.12, 29267.11, 29286.60, 29285.46, 0.00, 0.00, 0.00
16, 75900.66, 75906.68, 76015.80, 75985.09, 29363.35, 29376.76, 29396.25, 29394.76, 0.00, 0.00, 0.00
17, 76077.09, 76083.80, 76191.75, 76161.63, 29288.18, 29301.73, 29321.35, 29319.52, -0.04, 0.74, 0.63
18, 76315.05, 76321.39, 76429.84, 76399.65, 29174.03, 29187.62, 29207.07, 29205.59, 0.00, 0.00, 0.00
19, 76181.45, 76187.59, 76296.70, 76266.25, 29256.67, 29270.26, 29289.37, 29288.00, 0.00, 0.00, 0.00
20, 75930.35, 75936.70, 76045.68, 76015.13, 29388.43, 29402.09, 29421.60, 29420.06, 0.00, 0.00, 0.00
21, 76012.78, 76019.20, 76127.76, 76097.36, 29339.28, 29352.60, 29372.49, 29371.00, 0.00, 0.00, 0.00
22, 76276.15, 76282.05, 76390.75, 76360.38, 29206.33, 29219.29, 29239.48, 29237.76, 0.00, 0.00, 0.00
23, 76207.87, 76213.86, 76323.23, 76292.55, 29264.06, 29277.25, 29297.17, 29295.31, 0.00, 0.00, 0.00
24, 75950.53, 75956.77, 76066.00, 76035.18, 29419.50, 29432.51, 29452.18, 29450.59, 0.00, 0.00, 0.00
25, 75985.36, 75991.64, 76100.38, 76070.00, 29401.55, 29414.54, 29434.10, 29432.89, 0.00, 0.00, 0.00
26, 76255.01, 76261.34, 76369.88, 76339.85, 29266.68, 29279.94, 29299.58, 29298.06, 0.00, 0.00, 0.00
27, 76270.88, 76277.38, 76386.15, 76355.77, 29271.71, 29284.99, 29304.52, 29303.05, -0.06, 0.74, 0.65
28, 76001.41, 76007.82, 76117.16, 76086.05, 29407.16, 29420.24, 29440.09, 29438.32, 0.00, 0.00, 0.00
29, 75960.41, 75966.55, 76075.97, 76044.86, 29426.38, 29439.68, 29459.22, 29457.61, 0.00, 0.00, 0.00
30, 76238.29, 76244.57, 76353.42, 76322.98, 29282.37, 29295.74, 29315.52, 29313.84, 0.00, 0.00, 0.00
31, 76314.30, 76320.74, 76429.53, 76398.87, 29239.72, 29253.13, 29272.89, 29271.02, 0.00, 0.00, 0.00
32, 76055.49, 76062.09, 76171.03, 76140.27, 29382.62, 29396.32, 29415.63, 29414.27, 0.00, 0.00, 0.00
33, 75963.70, 75969.91, 76078.95, 76048.16, 29431.28, 29444.76, 29464.47, 29463.02, 0.00, 0.00, 0.00
34, 76222.42, 76228.48, 76336.99, 76306.73, 29296.32, 29309.37, 29328.93, 29327.52, 0.00, 0.00, 0.00
35, 76372.94, 76379.17, 76487.80, 76457.70, 29220.28, 29233.80, 29253.16, 29251.64, 0.00, 0.00, 0.00
36, 76133.01, 76139.60, 76248.41, 76217.70, 29352.76, 29365.88, 29385.41, 29384.05, 0.00, 0.00, 0.00
37, 75967.74, 75974.05, 76083.21, 76052.44, 29443.75, 29456.76, 29476.34, 29475.04, -0.07, 0.74, 0.66
38, 76170.63, 76176.77, 76285.90, 76255.39, 29344.71, 29358.01, 29377.41, 29376.07, 0.00, 0.00, 0.00
39, 76370.52, 76376.96, 76485.63, 76455.34, 29250.88, 29264.11, 29283.49, 29282.19, 0.00, 0.00, 0.00
40, 76197.18, 76203.66, 76312.83, 76282.21, 29338.70, 29351.77, 29371.53, 29369.95, 0.00, 0.00, 0.00
41, 75987.97, 75994.56, 76103.73, 76072.62, 29446.95, 29460.54, 29480.23, 29478.57, 0.00, 0.00, 0.00
42, 76147.16, 76153.53, 76262.18, 76231.60, 29362.14, 29375.42, 29395.31, 29393.79, 0.00, 0.00, 0.00
43, 76396.63, 76402.91, 76511.47, 76481.14, 29244.55, 29258.12, 29277.61, 29276.40, 0.00, 0.00, 0.00
44, 76277.13, 76283.55, 76392.76, 76362.14, 29301.39, 29314.36, 29333.96, 29332.82, 0.00, 0.00, 0.00
45, 76021.88, 76028.25, 76137.39, 76107.02, 29425.20, 29438.59, 29457.99, 29456.74, 0.00, 0.00, 0.00
46, 76121.30, 76127.34, 76236.26, 76206.10, 29385.37, 29398.94, 29418.49, 29417.00, 0.00, 0.00, 0.00
47, 76394.26, 76400.77, 76509.59, 76479.30, 29235.54, 29248.38, 29267.80, 29266.75, -0.09, 0.75, 0.65
48, 76330.80, 76337.10, 76446.38, 76415.80, 29247.66, 29260.69, 29280.54, 29278.93, 0.00, 0.00, 0.00
49, 76061.93, 76067.97, 76177.16, 76146.40, 29391.04, 29404.54, 29424.37, 29422.47, 0.00, 0.00, 0.00
50, 76100.83, 76107.15, 76216.27, 76185.54, 29388.59, 29402.06, 29421.64, 29420.33, 0.00, 0.00, 0.00
51, 76377.83, 76384.07, 76492.85, 76462.48, 29238.81, 29252.20, 29271.64, 29270.50, 0.00, 0.00, 0.00
52, 76390.19, 76396.43, 76505.13, 76474.79, 29231.86, 29245.24, 29264.76, 29263.37, 0.00, 0.00, 0.00
53, 76116.92, 76123.06, 76232.50, 76201.52, 29369.77, 29383.22, 29402.56, 29401.42, 0.00, 0.00, 0.00
54, 76055.65, 76061.84, 76171.14, 76140.19, 29390.58, 29403.90, 29423.48, 29421.89, 0.00, 0.00, 0.00
55, 76326.13, 76332.12, 76441.13, 76410.84, 29249.16, 29262.37, 29281.81, 29280.16, 0.00, 0.00, 0.00
56, 76410.66, 76416.95, 76526.09, 76495.69, 29201.35, 29214.33, 29234.11, 29232.41, 0.00, 0.00, 0.00
57, 76165.49, 76171.99, 76281.38, 76250.67, 29332.06, 29345.20, 29364.85, 29363.33, -0.05, 0.74, 0.65
58, 76039.80, 76046.06, 76154.94, 76124.70, 29386.98, 29400.59, 29419.95, 29418.47, 0.00, 0.00, 0.00
59, 76294.05, 76300.43, 76409.01, 76378.63, 29272.25, 29285.77, 29305.06, 29303.63, 0.00, 0.00, 0.00
60, 76431.54, 76437.69, 76546.50, 76516.03, 29185.52, 29198.98, 29218.62, 29216.99, 0.00, 0.00, 0.00
61, 76220.18, 76226.40, 76335.54, 76304.92, 29310.24, 29323.28, 29343.12, 29341.67, 0.00, 0.00, 0.00
62, 76046.51, 76052.57, 76161.84, 76131.36, 29405.04, 29418.16, 29438.10, 29436.71, 0.00, 0.00, 0.00
63, 76248.75, 76254.85, 76363.64, 76333.20, 29276.07, 29289.23, 29309.08, 29307.81, 0.00, 0.00, 0.00
64, 76471.13, 76477.34, 76586.30, 76555.95, 29165.03, 29178.41, 29197.93, 29196.70, 0.00, 0.00, 0.00
65, 76304.41, 76310.93, 76420.48, 76389.59, 29266.50, 29279.87, 29299.29, 29297.86, 0.00, 0.00, 0.00
66, 76079.97, 76086.30, 76195.71, 76164.88, 29395.56, 29408.77, 29428.66, 29427.23, 0.00, 0.00, 0.00
67, 76214.28, 76220.59, 76329.48, 76298.93, 29306.33, 29319.56, 29339.48, 29338.03, 0.00, 0.00, 0.00
68, 76450.18, 76456.30, 76565.48, 76534.96, 29189.46, 29202.66, 29222.36, 29220.84, -0.04, 0.73, 0.64
69, 76312.79, 76319.45, 76428.79, 76397.99, 29254.28, 29267.46, 29287.18, 29285.95, 0.00, 0.00, 0.00
70, 76069.22, 76076.08, 76185.16, 76154.27, 29374.91, 29388.14, 29407.92, 29406.29, 0.00, 0.00, 0.00
71, 76154.02, 76160.64, 76269.24, 76239.14, 29326.74, 29340.15, 29360.02, 29358.32, 0.00, 0.00, 0.00
72, 76425.30, 76431.50, 76540.02, 76509.95, 29191.91, 29205.30, 29224.93, 29223.14, 0.00, 0.00, 0.00
73, 76378.10, 76384.16, 76493.48, 76462.43, 29228.79, 29242.09, 29261.58, 29260.06, 0.00, 0.00, 0.00
74, 76096.49, 76102.59, 76211.98, 76181.36, 29369.99, 29383.51, 29403.16, 29401.69, 0.00, 0.00, 0.00
75, 76108.70, 76115.04, 76224.05, 76193.80, 29358.05, 29371.51, 29391.25, 29389.68, 0.00, 0.00, 0.00
76, 76389.54, 76395.98, 76504.72, 76474.39, 29206.93, 29220.30, 29239.95, 29238.27, 0.00, 0.00, 0.00
77, 76406.28, 76412.45, 76521.62, 76491.16, 29187.89, 29201.19, 29220.97, 29219.29, 0.00, 0.00, 0.00
78, 76127.38, 76133.37, 76242.89, 76212.14, 29341.85, 29355.51, 29375.13, 29373.92, -0.05, 0.74, 0.62
79, 76078.01, 76084.46, 76193.72, 76162.98, 29383.04, 29396.66, 29416.15, 29414.85, 0.00, 0.00, 0.00
80, 76329.66, 76335.90, 76444.62, 76414.66, 29225.46, 29238.96, 29258.30, 29257.11, 0.00, 0.00, 0.00
81, 76424.88, 76431.09, 76540.10, 76509.52, 29190.04, 29203.49, 29222.74, 29221.57, 0.00, 0.00, 0.00
82, 76168.82, 76174.83, 76284.34, 76253.42, 29327.03, 29340.62, 29359.95, 29358.55, 0.00, 0.00, 0.00
83, 76041.55, 76047.80, 76156.77, 76126.02, 29391.65, 29405.02, 29424.69, 29422.90, 0.00, 0.00, 0.00
84, 76295.93, 76302.17, 76410.98, 76380.67, 29273.19, 29286.73, 29306.47, 29304.86, 0.00, 0.00, 0.00
85, 76452.58, 76458.92, 76567.87, 76537.66, 29192.14, 29205.28, 29225.17, 29223.68, 0.00, 0.00, 0.00
86, 76228.07, 76234.51, 76343.63, 76313.10, 29319.92, 29333.13, 29352.94, 29351.68, 0.00, 0.00, 0.00
87, 76047.63, 76054.13, 76163.43, 76132.59, 29413.80, 29427.28, 29446.92, 29445.54, 0.00, 0.00, 0.00
88, 76240.19, 76246.85, 76355.59, 76325.08, 29303.22, 29316.73, 29336.42, 29334.74, -0.05, 0.73, 0.63
89, 76452.87, 76459.13, 76567.71, 76537.51, 29208.19, 29221.78, 29241.31, 29239.68, 0.00, 0.00, 0.00
90, 76272.11, 76278.32, 76387.66, 76356.89, 29305.77, 29319.07, 29338.68, 29337.02, 0.00, 0.00, 0.00
91, 76042.98, 76049.30, 76158.54, 76127.76, 29439.10, 29451.98, 29471.82, 29470.30, 0.00, 0.00, 0.00
92, 76184.82, 76191.02, 76300.00, 76269.70, 29382.26, 29395.58, 29415.12, 29413.96, 0.00, 0.00, 0.00
93, 76451.13, 76457.56, 76566.66, 76536.53, 29276.16, 29289.41, 29309.06, 29307.70, 0.00, 0.00, 0.00
94, 76341.98, 76348.10, 76457.58, 76426.85, 29348.69, 29361.74, 29381.50, 29379.87, 0.00, 0.00, 0.00
95, 76076.69, 76083.10, 76192.69, 76161.84, 29482.44, 29495.41, 29515.54, 29513.67, 0.00, 0.00, 0.00
96, 76134.42, 76141.23, 76250.23, 76219.91, 29442.14, 29455.24, 29475.00, 29473.46, 0.00, 0.00, 0.00
97, 76415.76, 76422.31, 76531.03, 76500.50, 29291.38, 29304.68, 29324.33, 29322.83, 0.00, 0.00, 0.00
98, 76373.16, 76379.82, 76488.70, 76458.30, 29311.94, 29325.02, 29345.00, 29343.19, -0.05, 0.73, 0.58
99, 76078.27, 76084.58, 76193.74, 76163.14, 29474.55, 29487.72, 29507.41, 29506.00, 0.00, 0.00, 0.00
100, 76100.55, 76106.75, 76215.73, 76185.00, 29451.06, 29464.43, 29483.98, 29482.64, 0.00, 0.00, 0.00
101, 76380.36, 76386.41, 76495.29, 76465.07, 29291.42, 29304.61, 29324.39, 29322.89, 0.00, 0.00, 0.00
102, 76417.21, 76423.56, 76532.84, 76502.30, 29276.60, 29289.68, 29309.77, 29308.19, 0.00, 0.00, 0.00
103, 76152.91, 76158.98, 76268.48, 76237.80, 29423.57, 29436.62, 29456.54, 29455.06, 0.00, 0.00, 0.00
104, 76078.32, 76084.38, 76193.34, 76162.85, 29448.27, 29461.52, 29481.41, 29479.96, 0.00, 0.00, 0.00
105, 76343.79, 76349.96, 76458.63, 76428.62, 29305.86, 29319.07, 29339.19, 29337.58, 0.00, 0.00, 0.00
106, 76442.18, 76448.57, 76557.54, 76527.14, 29248.29, 29261.63, 29281.59, 29280.02, 0.00, 0.00, 0.00
107, 76191.62, 76197.88, 76307.38, 76276.47, 29373.74, 29386.91, 29406.71, 29405.57, 0.00, 0.00, 0.00
108, 76045.10, 76051.43, 76160.52, 76129.88, 29437.20, 29450.34, 29470.53, 29469.10, 0.00, 0.00, 0.00
109, 76282.10, 76288.52, 76397.34, 76367.33, 29303.22, 29316.37, 29336.17, 29334.83, -0.02, 0.76, 0.56
110, 76447.86, 76454.05, 76563.28, 76533.00, 29224.08, 29237.11, 29257.05, 29255.48, 0.00, 0.00, 0.00
111, 76244.13, 76250.31, 76360.20, 76329.46, 29342.92, 29356.18, 29376.23, 29374.55, 0.00, 0.00, 0.00
112, 76045.57, 76051.72, 76161.51, 76130.62, 29435.86, 29449.14, 29468.65, 29467.40, 0.00, 0.00, 0.00
113, 76227.02, 76233.23, 76342.23, 76311.60, 29319.97, 29333.13, 29352.69, 29351.26, 0.00, 0.00, 0.00
114, 76465.85, 76472.22, 76580.88, 76550.84, 29213.60, 29226.98, 29247.01, 29245.49, 0.00, 0.00, 0.00
115, 76309.10, 76315.24, 76424.55, 76393.74, 29307.25, 29320.55, 29340.53, 29339.01, 0.00, 0.00, 0.00
116, 76051.74, 76057.75, 76166.98, 76136.21, 29420.79, 29434.03, 29453.85, 29452.40, 0.00, 0.00, 0.00
117, 76198.88, 76204.49, 76313.84, 76283.17, 29338.41, 29352.00, 29371.51, 29370.26, 0.00, 0.00, 0.00
118, 76447.39, 76453.49, 76562.48, 76532.21, 29196.90, 29210.49, 29230.07, 29228.50, 0.00, 0.00, 0.00
119, 76352.84, 76359.21, 76468.45, 76437.89, 29250.59, 29263.86, 29283.53, 29281.75, -0.00, 0.79, 0.57
120, 76107.53, 76113.84, 76223.11, 76192.27, 29388.14, 29401.19, 29420.75, 29419.66, 0.00, 0.00, 0.00
121, 76167.10, 76173.06, 76282.21, 76251.43, 29342.32, 29355.51, 29374.91, 29373.90, 0.00, 0.00, 0.00
122, 76439.03, 76445.18, 76553.98, 76523.79, 29207.81, 29221.33, 29240.80, 29239.34, 0.00, 0.00, 0.00
123, 76416.39, 76422.35, 76531.70, 76501.32, 29213.97, 29227.52, 29246.92, 29245.49, 0.00, 0.00, 0.00
124, 76153.46, 76159.55, 76269.18, 76238.29, 29322.00, 29335.46, 29355.06, 29353.56, 0.00, 0.00, 0.00
125, 76150.55, 76156.81, 76265.91, 76235.41, 29319.25, 29332.80, 29352.22, 29350.88, 0.00, 0.00, 0.00
126, 76429.06, 76434.89, 76543.75, 76513.59, 29187.04, 29200.47, 29219.74, 29218.51, 0.00, 0.00, 0.00
127, 76455.08, 76461.47, 76570.55, 76540.10, 29147.17, 29160.73, 29180.36, 29178.82, 0.00, 0.00, 0.00
128, 76181.58, 76187.95, 76297.30, 76266.38, 29290.37, 29303.61, 29323.45, 29321.73, 0.00, 0.00, 0.00
129, 76072.55, 76078.70, 76187.91, 76157.22, 29357.00, 29370.37, 29390.26, 29388.52, -0.00, 0.81, 0.62
130, 76345.91, 76352.08, 76461.00, 76430.65, 29205.64, 29219.34, 29238.96, 29237.31, 0.00, 0.00, 0.00
131, 76474.03, 76480.73, 76589.55, 76558.88, 29149.58, 29163.30, 29182.57, 29181.23, 0.00, 0.00, 0.00
132, 76212.72, 76219.27, 76328.30, 76297.63, 29294.73, 29308.34, 29327.63, 29326.34, 0.00, 0.00, 0.00
133, 76094.74, 76101.36, 76210.15, 76179.50, 29393.15, 29406.29, 29425.85, 29424.53, 0.00, 0.00, 0.00
134, 76336.37, 76343.14, 76451.48, 76421.35, 29277.28, 29290.48, 29310.20, 29308.63, 0.00, 0.00, 0.00
135, 76506.42, 76512.95, 76621.69, 76591.52, 29204.54, 29217.86, 29237.36, 29235.79, 0.00, 0.00, 0.00
136, 76302.44, 76308.59, 76417.80, 76387.48, 29333.06, 29346.74, 29365.97, 29364.45, 0.00, 0.00, 0.00
137, 76105.43, 76111.29, 76220.74, 76190.01, 29437.11, 29450.88, 29470.17, 29468.72, 0.00, 0.00, 0.00
138, 76279.75, 76285.92, 76394.95, 76364.45, 29363.53, 29377.01, 29396.66, 29394.91, 0.00, 0.00, 0.00
139, 76481.45, 76487.73, 76596.59, 76566.44, 29258.72, 29272.25, 29291.69, 29289.97, -0.02, 0.82, 0.63
140, 76313.86, 76320.12, 76429.51, 76399.02, 29322.87, 29335.97, 29355.57, 29354.01, 0.00, 0.00, 0.00
141, 76106.77, 76112.78, 76222.24, 76191.80, 29453.74, 29466.97, 29486.62, 29485.48, 0.00, 0.00, 0.00
142, 76221.99, 76227.91, 76336.97, 76306.64, 29403.96, 29417.22, 29437.00, 29435.71, 0.00, 0.00, 0.00
143, 76466.81, 76473.09, 76581.79, 76551.88, 29293.88, 29307.43, 29326.92, 29325.60, 0.00, 0.00, 0.00
144, 76381.05, 76387.62, 76496.83, 76466.39, 29332.97, 29346.48, 29366.03, 29364.56, 0.00, 0.00, 0.00
145, 76131.23, 76137.26, 76246.52, 76215.98, 29469.97, 29483.58, 29503.32, 29501.80, 0.00, 0.00, 0.00
146, 76195.35, 76201.45, 76310.17, 76280.04, 29458.14, 29471.51, 29491.20, 29490.18, 0.00, 0.00, 0.00
147, 76439.34, 76445.84, 76554.32, 76524.28, 29329.91, 29343.03, 29362.50, 29361.38, 0.00, 0.00, 0.00
148, 76423.77, 76429.84, 76539.05, 76508.81, 29349.76, 29363.02, 29382.48, 29381.23, 0.00, 0.00, 0.00
149, 76181.00, 76187.26, 76296.54, 76266.27, 29466.21, 29479.42, 29499.07, 29497.66, 0.00, 0.00, 0.00
150, 76153.77, 76160.02, 76269.27, 76238.73, 29465.72, 29479.16, 29498.89, 29497.22, -0.04, 0.84, 0.63
151, 76397.01, 76403.38, 76512.41, 76482.03, 29338.03, 29351.55, 29371.13, 29369.77, 0.00, 0.00, 0.00
152, 76444.93, 76451.13, 76560.35, 76529.98, 29316.53, 29329.91, 29349.58, 29348.00, 0.00, 0.00, 0.00
153, 76227.13, 76233.21, 76342.65, 76312.07, 29419.39, 29432.46, 29452.51, 29451.06, 0.00, 0.00, 0.00
154, 76190.03, 76196.31, 76305.43, 76275.19, 29443.91, 29457.23, 29477.05, 29475.78, 0.00, 0.00, 0.00
155, 76407.71, 76413.99, 76522.83, 76492.49, 29353.65, 29366.59, 29386.42, 29385.35, 0.00, 0.00, 0.00
156, 76432.57, 76438.70, 76547.75, 76517.35, 29341.94, 29354.63, 29374.91, 29373.57, 0.00, 0.00, 0.00
157, 76265.70, 76271.66, 76381.38, 76350.52, 29441.43, 29454.52, 29474.64, 29473.01, 0.00, 0.00, 0.00
158, 76164.80, 76171.03, 76280.11, 76249.42, 29493.91, 29507.68, 29527.10, 29525.51, 0.00, 0.00, 0.00
159, 76278.77, 76285.25, 76393.90, 76363.34, 29419.88, 29433.04, 29452.80, 29451.69, 0.00, 0.00, 0.00
160, 76410.30, 76416.50, 76525.64, 76495.13, 29345.07, 29358.52, 29378.01, 29376.79, -0.08, 0.84, 0.63
161, 76249.02, 76255.30, 76364.58, 76334.06, 29419.39, 29432.84, 29452.42, 29450.75, 0.00, 0.00, 0.00
162, 76121.50, 76127.38, 76236.97, 76205.99, 29509.02, 29522.09, 29541.88, 29540.36, 0.00, 0.00, 0.00
163, 76248.37, 76254.29, 76363.52, 76332.86, 29467.00, 29480.18, 29499.99, 29498.74, 0.00, 0.00, 0.00
164, 76394.52, 76400.54, 76509.55, 76479.09, 29383.92, 29396.86, 29416.73, 29415.52, 0.00, 0.00, 0.00
165, 76269.85, 76276.20, 76385.16, 76354.65, 29427.32, 29440.44, 29460.36, 29459.20, 0.00, 0.00, 0.00
166, 76095.39, 76101.63, 76210.70, 76180.06, 29508.62, 29521.71, 29541.56, 29540.09, 0.00, 0.00, 0.00
167, 76186.86, 76193.36, 76301.95, 76271.21, 29481.19, 29494.58, 29514.09, 29512.84, 0.00, 0.00, 0.00
168, 76333.24, 76340.01, 76448.51, 76418.24, 29389.41, 29403.12, 29422.65, 29420.93, 0.00, 0.00, 0.00
169, 76247.84, 76254.27, 76363.30, 76333.02, 29399.23, 29412.62, 29432.31, 29430.70, 0.00, 0.00, 0.00
170, 76096.91, 76103.15, 76212.41, 76181.91, 29463.98, 29477.37, 29497.17, 29495.47, -0.10, 0.79, 0.66
171, 76130.73, 76136.79, 76245.62, 76215.55, 29427.59, 29441.27, 29460.69, 29459.06, 0.00, 0.00, 0.00
172, 76265.85, 76272.04, 76381.02, 76350.74, 29345.98, 29359.53, 29379.00, 29377.25, 0.00, 0.00, 0.00
173, 76263.79, 76269.80, 76378.73, 76348.70, 29376.79, 29390.35, 29410.04, 29408.37, 0.00, 0.00, 0.00
174, 76102.45, 76108.52, 76217.63, 76187.13, 29465.88, 29479.49, 29499.36, 29497.84, 0.00, 0.00, 0.00
175, 76095.13, 76101.12, 76210.33, 76179.57, 29466.44, 29480.14, 29500.19, 29498.60, 0.00, 0.00, 0.00
176, 76255.37, 76261.83, 76370.79, 76340.34, 29383.78, 29397.06, 29417.20, 29415.41, 0.00, 0.00, 0.00
177, 76266.54, 76272.82, 76381.79, 76351.26, 29348.71, 29362.01, 29381.72, 29380.21, 0.00, 0.00, 0.00
178, 76112.45, 76118.88, 76227.90, 76197.54, 29463.53, 29476.61, 29496.57, 29495.09, 0.00, 0.00, 0.00
179, 76087.75, 76093.96, 76202.93, 76172.69, 29535.88, 29549.56, 29569.75, 29567.65, 0.00, 0.00, 0.00
180, 76232.21, 76238.35, 76347.27, 76316.77, 29494.98, 29508.41, 29528.35, 29526.68, -0.12, 0.78, 0.67
181, 76253.06, 76259.50, 76368.45, 76337.82, 29491.18, 29504.48, 29524.06, 29522.59, 0.00, 0.00, 0.00
182, 76104.71, 76111.13, 76220.18, 76189.80, 29581.88, 29595.23, 29614.96, 29613.29, 0.00, 0.00, 0.00
183, 76046.31, 76052.66, 76161.73, 76131.34, 29641.16, 29654.68, 29674.51, 29672.79, 0.00, 0.00, 0.00
184, 76157.94, 76164.15, 76273.00, 76242.78, 29604.08, 29617.36, 29637.36, 29635.80, 0.00, 0.00, 0.00
185, 76242.18, 76248.70, 76357.22, 76326.84, 29558.86, 29571.98, 29592.12, 29590.58, 0.00, 0.00, 0.00
186, 76151.19, 76157.60, 76266.63, 76235.95, 29617.47, 29630.57, 29650.57, 29649.16, 0.00, 0.00, 0.00
187, 76028.70, 76034.91, 76144.48, 76113.41, 29695.34, 29708.57, 29728.47, 29726.99, 0.00, 0.00, 0.00
188, 76075.88, 76082.25, 76191.08, 76160.80, 29661.12, 29674.49, 29694.43, 29693.08, 0.00, 0.00, 0.00
189, 76180.60, 76186.88, 76295.38, 76265.60, 29636.65, 29650.21, 29670.11, 29668.83, 0.00, 0.00, 0.00
190, 76150.94, 76157.48, 76266.41, 76236.08, 29671.07, 29684.46, 29704.53, 29703.12, -0.08, 0.74, 0.64
191, 76027.02, 76033.16, 76142.31, 76111.62, 29722.10, 29735.51, 29755.33, 29753.93, 0.00, 0.00, 0.00
192, 76073.58, 76079.66, 76188.58, 76158.49, 29686.92, 29700.59, 29720.38, 29718.95, 0.00, 0.00, 0.00
193, 76208.98, 76215.11, 76324.09, 76293.92, 29572.97, 29586.29, 29606.31, 29604.57, 0.00, 0.00, 0.00
194, 76166.95, 76173.06, 76282.34, 76251.66, 29532.08, 29545.07, 29565.34, 29563.58, 0.00, 0.00, 0.00
195, 76035.40, 76041.57, 76150.70, 76120.27, 29554.55, 29567.91, 29588.03, 29586.42, 0.00, 0.00, 0.00
196, 76025.23, 76031.55, 76140.19, 76109.99, 29504.39, 29517.82, 29537.83, 29536.29, 0.00, 0.00, 0.00
197, 76149.22, 76155.41, 76264.33, 76234.04, 29367.17, 29380.56, 29400.23, 29398.67, 0.00, 0.00, 0.00
198, 76174.92, 76181.16, 76290.13, 76259.77, 29313.80, 29327.10, 29346.61, 29345.29, 0.00, 0.00, 0.00
199, 76057.09, 76063.61, 76172.48, 76142.04, 29387.20, 29400.46, 29419.83, 29418.70, 0.00, 0.00, 0.00
200, 76036.14, 76042.58, 76151.38, 76121.21, 29396.30, 29409.53, 29429.18, 29427.88, 0.00, 0.00, 0.00
201, 76153.89, 76160.52, 76269.34, 76238.87, 29303.34, 29316.68, 29336.71, 29335.12, -0.01, 0.68, 0.63
202, 76177.00, 76183.52, 76292.29, 76261.71, 29197.14, 29210.53, 29229.98, 29228.71, 0.00, 0.00, 0.00
203, 76049.39, 76055.63, 76164.57, 76134.06, 29242.81, 29256.40, 29275.49, 29274.41, 0.00, 0.00, 0.00
204, 76002.14, 76008.47, 76117.25, 76087.08, 29324.10, 29337.58, 29357.07, 29355.60, 0.00, 0.00, 0.00
205, 76111.66, 76118.23, 76227.00, 76196.89, 29339.79, 29353.40, 29373.07, 29371.44, 0.00, 0.00, 0.00
206, 76202.75, 76208.96, 76318.04, 76287.75, 29342.14, 29355.95, 29375.58, 29374.06, 0.00, 0.00, 0.00
207, 76079.77, 76086.14, 76195.28, 76164.70, 29411.10, 29424.75, 29444.04, 29442.70, 0.00, 0.00, 0.00
208, 75993.54, 75999.68, 76109.05, 76078.38, 29466.66, 29480.94, 29499.52, 29498.47, 0.00, 0.00, 0.00
209, 76064.17, 76070.31, 76179.39, 76148.91, 29224.55, 29238.94, 29257.54, 29256.11, 0.00, 0.00, 0.00
210, 76128.90, 76134.89, 76243.98, 76213.52, 28368.12, 28381.86, 28399.81, 28398.43, 0.00, 0.00, 0.00
211, 76103.53, 76109.90, 76218.66, 76188.24, 28765.67, 28779.30, 28797.81, 28796.78, 0.05, 0.64, 0.64
212, 76036.48, 76042.40, 76151.48, 76121.10, 29120.34, 29134.16, 29153.51, 29152.44, 0.00, 0.00, 0.00
213, 76133.91, 76139.88, 76249.02, 76218.84, 29250.59, 29264.22, 29284.27, 29282.59, 0.00, 0.00, 0.00
214, 76239.52, 76245.80, 76354.74, 76324.55, 29341.04, 29354.86, 29374.57, 29373.25, 0.00, 0.00, 0.00
215, 76184.09, 76190.48, 76299.48, 76269.02, 29445.31, 29458.73, 29478.84, 29477.19, 0.00, 0.00, 0.00
216, 76080.38, 76086.74, 76195.98, 76165.27, 29383.78, 29397.08, 29417.15, 29415.41, 0.00, 0.00, 0.00
217, 76136.37, 76142.69, 76251.88, 76221.08, 29686.54, 29699.90, 29719.86, 29718.54, 0.00, 0.00, 0.00
218, 76226.84, 76233.05, 76342.13, 76311.63, 29660.99, 29674.44, 29694.67, 29693.38, 0.00, 0.00, 0.00
219, 76209.30, 76215.34, 76324.66, 76294.34, 29619.23, 29632.64, 29652.67, 29651.24, 0.00, 0.00, 0.00
220, 76141.98, 76148.45, 76257.55, 76227.00, 29721.76, 29734.95, 29755.04, 29753.59, 0.00, 0.00, 0.00
221, 76163.74, 76170.14, 76279.05, 76248.59, 29660.72, 29674.24, 29694.20, 29692.57, 0.07, 0.65, 0.68
222, 76259.19, 76265.52, 76374.48, 76344.08, 29624.80, 29638.30, 29658.17, 29656.70, 0.00, 0.00, 0.00
223, 76249.24, 76255.50, 76364.30, 76333.98, 29678.38, 29691.90, 29711.68, 29710.50, 0.00, 0.00, 0.00
224, 76143.36, 76149.80, 76258.96, 76228.41, 29657.14, 29670.78, 29690.47, 29689.06, 0.00, 0.00, 0.00
225, 76169.55, 76176.04, 76285.00, 76254.52, 29531.30, 29544.85, 29564.43, 29562.75, 0.00, 0.00, 0.00
226, 76231.02, 76237.15, 76346.20, 76315.65, 29307.81, 29321.13, 29340.84, 29339.23, 0.00, 0.00, 0.00
227, 76188.13, 76194.10, 76303.27, 76272.73, 28934.42, 28947.61, 28966.72, 28965.02, 0.00, 0.00, 0.00
228, 76125.93, 76131.76, 76241.02, 76210.39, 28816.45, 28829.53, 28848.66, 28846.96, 0.00, 0.00, 0.00
229, 76149.28, 76155.20, 76264.35, 76233.62, 28792.18, 28805.27, 28824.54, 28822.84, 0.00, 0.00, 0.00
230, 76222.33, 76228.77, 76337.42, 76306.87, 28717.23, 28730.55, 28749.39, 28748.01, 0.00, 0.00, 0.00
231, 76198.63, 76204.91, 76313.68, 76283.62, 28552.25, 28565.64, 28584.30, 28582.76, 0.10, 0.60, 0.72
232, 76155.88, 76161.91, 76271.15, 76241.10, 28478.92, 28492.04, 28510.68, 28509.25, 0.00, 0.00, 0.00
233, 76172.33, 76178.27, 76287.40, 76256.75, 28406.59, 28419.42, 28438.12, 28436.69, 0.00, 0.00, 0.00
234, 76229.46, 76235.61, 76344.34, 76314.02, 28306.45, 28319.32, 28338.17, 28336.56, 0.00, 0.00, 0.00
235, 76247.84, 76254.07, 76363.08, 76332.77, 28244.76, 28257.48, 28276.14, 28274.58, 0.00, 0.00, 0.00
236, 76208.00, 76214.22, 76323.47, 76293.19, 28199.94, 28212.73, 28231.15, 28229.63, 0.00, 0.00, 0.00
237, 76208.92, 76215.13, 76324.19, 76293.68, 28141.16, 28153.72, 28172.32, 28170.57, 0.00, 0.00, 0.00
238, 76263.88, 76269.96, 76379.06, 76348.37, 28072.34, 28084.85, 28103.14, 28101.60, 0.00, 0.00, 0.00
239, 76291.80, 76298.02, 76406.89, 76376.60, 28039.86, 28052.47, 28070.79, 28069.05, 0.00, 0.00, 0.00
240, 76278.01, 76284.11, 76393.16, 76362.90, 28054.99, 28067.76, 28086.17, 28084.52, 0.00, 0.00, 0.00
241, 76281.94, 76287.95, 76396.96, 76366.77, 28105.46, 28117.91, 28136.89, 28135.30, 0.00, 0.00, 0.00
242, 76334.67, 76340.88, 76449.53, 76419.38, 28144.38, 28157.14, 28176.07, 28174.46, 0.08, 0.58, 0.72
243, 76386.48, 76392.91, 76501.55, 76471.10, 28165.41, 28178.44, 28197.15, 28195.70, 0.00, 0.00, 0.00
244, 76357.87, 76363.88, 76473.12, 76442.34, 28149.41, 28162.15, 28181.14, 28179.54, 0.00, 0.00, 0.00
245, 76369.85, 76376.00, 76485.14, 76454.50, 28156.36, 28169.14, 28188.14, 28186.73, 0.00, 0.00, 0.00
246, 76401.63, 76407.76, 76516.68, 76486.08, 28169.37, 28182.29, 28201.26, 28199.70, 0.00, 0.00, 0.00
247, 76409.16, 76415.05, 76524.08, 76493.91, 28182.17, 28194.85, 28213.76, 28211.99, 0.00, 0.00, 0.00
248, 76371.80, 76378.01, 76487.11, 76456.77, 28185.06, 28197.55, 28216.75, 28214.88, 0.00, 0.00, 0.00
249, 76329.77, 76336.30, 76445.24, 76414.64, 28207.77, 28220.62, 28239.53, 28237.85, 0.00, 0.00, 0.00
250, 76348.10, 76354.30, 76462.95, 76432.81, 28178.46, 28191.43, 28210.43, 28208.44, 0.00, 0.00, 0.00
251, 76373.02, 76379.06, 76488.36, 76457.80, 28151.60, 28164.70, 28183.29, 28181.46, 0.00, 0.00, 0.00
252, 76341.11, 76347.27, 76456.73, 76426.09, 28162.55, 28175.58, 28194.15, 28192.37, 0.03, 0.58, 0.69
253, 76301.56, 76308.02, 76416.74, 76386.44, 28189.30, 28201.93, 28220.91, 28219.10, 0.00, 0.00, 0.00
254, 76324.14, 76330.65, 76439.59, 76409.23, 28150.37, 28163.15, 28181.88, 28180.25, 0.00, 0.00, 0.00
255, 76296.91, 76303.00, 76412.07, 76381.74, 27401.76, 27414.44, 27432.54, 27430.91, 0.00, 0.00, 0.00
0, 76181.31, 76187.51, 76296.54, 76266.12, 25583.40, 25595.14, 25611.95, 25610.27, 0.00, 0.00, 0.00
1, 76130.69, 76136.90, 76245.89, 76215.49, 24299.27, 24310.56, 24326.14, 24324.42, 0.00, 0.00, 0.00
2, 76148.05, 76154.09, 76263.19, 76232.61, 23427.91, 23438.84, 23453.64, 23451.83, 0.00, 0.00, 0.00
3, 76245.17, 76251.43, 76360.69, 76329.93, 23431.60, 23442.40, 23457.39, 23455.72, 0.00, 0.00, 0.00
4, 76482.30, 76488.59, 76598.13, 76567.38, 26840.29, 26852.27, 26870.01, 26868.58, 0.00, 0.00, 0.00
5, 76444.82, 76450.74, 76560.11, 76529.42, 28354.95, 28367.87, 28386.85, 28385.13, 0.00, 0.00, 0.00
6, 76403.60, 76409.75, 76519.02, 76488.63, 28315.26, 28327.97, 28347.20, 28345.43, 0.01, 0.55, 0.70
7, 76432.86, 76439.16, 76548.40, 76518.00, 28265.46, 28278.31, 28297.44, 28295.50, 0.00, 0.00, 0.00
8, 76403.42, 76409.57, 76518.91, 76488.20, 28235.39, 28248.09, 28267.18, 28265.32, 0.00, 0.00, 0.00
9, 76354.09, 76360.24, 76469.63, 76439.19, 28205.02, 28217.82, 28236.51, 28234.72, 0.00, 0.00, 0.00
10, 76329.62, 76335.88, 76445.06, 76414.64, 28190.22, 28202.96, 28221.69, 28220.06, 0.00, 0.00, 0.00
11, 76368.51, 76374.92, 76484.07, 76453.47, 28189.33, 28201.93, 28220.91, 28219.32, 0.00, 0.00, 0.00
12, 76387.91, 76394.15, 76503.27, 76472.49, 28205.96, 28219.05, 28237.92, 28236.20, 0.00, 0.00, 0.00
13, 76359.21, 76365.47, 76474.73, 76443.95, 28226.18, 28239.33, 28258.10, 28256.45, 0.00, 0.00, 0.00
14, 76356.33, 76362.48, 76471.93, 76441.31, 28218.88, 28231.79, 28250.41, 28248.83, 0.00, 0.00, 0.00
15, 76376.34, 76382.30, 76491.66, 76461.02, 28176.68, 28189.62, 28208.48, 28206.58, 0.00, 0.00, 0.00
16, 76384.20, 76390.46, 76499.60, 76468.98, 28148.42, 28161.56, 28179.94, 28178.46, 0.01, 0.53, 0.72
17, 76401.79, 76407.91, 76517.02, 76486.57, 28154.01, 28166.95, 28185.30, 28183.76, 0.00, 0.00, 0.00
18, 76363.32, 76369.47, 76478.52, 76448.06, 28134.95, 28147.86, 28166.46, 28164.74, 0.00, 0.00, 0.00
19, 76365.31, 76371.23, 76480.36, 76449.98, 28105.82, 28118.70, 28137.56, 28135.71, 0.00, 0.00, 0.00
20, 76357.85, 76363.86, 76473.05, 76442.77, 28065.01, 28077.90, 28096.25, 28094.71, 0.00, 0.00, 0.00
21, 76341.80, 76348.08, 76456.91, 76426.63, 28051.75, 28064.71, 28083.36, 28081.41, 0.00, 0.00, 0.00
22, 76330.89, 76337.38, 76446.25, 76416.01, 28000.34, 28013.31, 28031.95, 28030.18, 0.00, 0.00, 0.00
23, 76343.86, 76350.29, 76459.30, 76428.73, 27975.93, 27988.81, 28007.09, 28005.71, 0.00, 0.00, 0.00
24, 76374.41, 76380.63, 76489.34, 76459.03, 27990.24, 28003.00, 28021.40, 28019.86, 0.00, 0.00, 0.00
25, 76361.85, 76367.95, 76477.07, 76446.59, 28023.50, 28036.15, 28054.84, 28053.29, 0.00, 0.00, 0.00
26, 76329.15, 76335.32, 76444.48, 76413.91, 28027.48, 28040.42, 28059.15, 28057.50, 0.00, 0.59, 0.77
27, 76339.81, 76346.13, 76455.30, 76424.77, 28015.54, 28028.39, 28046.99, 28045.54, 0.00, 0.00, 0.00
28, 76349.89, 76356.28, 76465.27, 76434.91, 27988.54, 28001.46, 28019.77, 28018.31, 0.00, 0.00, 0.00
29, 76351.97, 76358.16, 76467.57, 76436.86, 27982.35, 27995.56, 28013.96, 28012.57, 0.00, 0.00, 0.00
30, 76328.03, 76334.06, 76443.39, 76412.92, 27982.06, 27994.73, 28013.84, 28012.08, 0.00, 0.00, 0.00
31, 76326.47, 76333.02, 76442.09, 76411.60, 27972.56, 27985.12, 28004.25, 28002.24, 0.00, 0.00, 0.00
32, 76353.89, 76360.46, 76469.70, 76439.14, 27953.74, 27966.52, 27984.85, 27983.20, 0.00, 0.00, 0.00
33, 76344.30, 76351.12, 76459.91, 76429.26, 27952.71, 27965.43, 27983.85, 27982.13, 0.00, 0.00, 0.00
34, 76301.84, 76308.48, 76417.39, 76386.77, 27972.67, 27985.37, 28004.12, 28002.18, 0.00, 0.00, 0.00
35, 76294.05, 76300.31, 76409.32, 76378.99, 27962.05, 27974.66, 27993.10, 27991.24, 0.00, 0.00, 0.00
36, 76315.16, 76321.34, 76430.24, 76400.25, 27932.93, 27945.71, 27964.00, 27962.61, 0.00, 0.00, 0.00
37, 76315.40, 76321.46, 76430.47, 76400.30, 27926.09, 27939.17, 27957.67, 27956.06, 0.00, 0.58, 0.78
38, 76276.22, 76282.05, 76391.33, 76360.87, 27944.40, 27956.96, 27975.98, 27973.90, 0.00, 0.00, 0.00
39, 76261.65, 76268.09, 76376.89, 76346.54, 27943.32, 27955.93, 27974.64, 27972.67, 0.00, 0.00, 0.00
40, 76280.33, 76287.13, 76395.55, 76365.42, 27939.37, 27952.20, 27970.55, 27969.25, 0.00, 0.00, 0.00
41, 76308.23, 76314.69, 76423.43, 76393.19, 27948.22, 27960.96, 27979.33, 27977.83, 0.00, 0.00, 0.00
42, 76283.02, 76289.43, 76398.22, 76367.99, 27967.37, 27979.76, 27998.55, 27996.97, 0.00, 0.00, 0.00
43, 76279.55, 76285.48, 76394.51, 76364.38, 27961.12, 27973.61, 27992.32, 27991.07, 0.00, 0.00, 0.00
44, 76313.62, 76319.65, 76428.73, 76398.20, 27956.51, 27969.47, 27987.87, 27986.57, 0.00, 0.00, 0.00
45, 76330.67, 76336.93, 76445.80, 76415.34, 27948.26, 27961.00, 27979.35, 27977.97, 0.00, 0.00, 0.00
46, 76318.30, 76324.25, 76433.22, 76403.18, 27966.03, 27978.71, 27996.99, 27995.60, 0.00, 0.00, 0.00
47, 76329.48, 76335.63, 76444.82, 76414.30, 27995.02, 28007.61, 28026.31, 28024.64, -0.02, 0.58, 0.80
48, 76340.95, 76347.32, 76456.33, 76426.02, 27988.25, 28000.86, 28019.72, 28017.91, 0.00, 0.00, 0.00
49, 76378.50, 76384.40, 76493.61, 76463.44, 27982.91, 27995.25, 28014.60, 28012.46, 0.00, 0.00, 0.00
50, 76369.38, 76375.20, 76484.38, 76454.07, 27979.76, 27992.05, 28011.12, 28009.06, 0.00, 0.00, 0.00
51, 76346.54, 76352.39, 76461.36, 76431.30, 27994.69, 28007.18, 28026.22, 28024.39, 0.00, 0.00, 0.00
52, 76373.96, 76380.02, 76488.98, 76458.85, 27981.61, 27994.35, 28013.02, 28011.59, 0.00, 0.00, 0.00
53, 76389.74, 76396.16, 76504.95, 76474.62, 27948.93, 27961.56, 27980.16, 27978.66, 0.00, 0.00, 0.00
54, 76391.47, 76397.66, 76506.98, 76476.52, 27964.47, 27977.01, 27995.69, 27994.13, 0.00, 0.00, 0.00
55, 76367.55, 76373.74, 76482.95, 76452.62, 27979.02, 27991.85, 28010.29, 28008.79, 0.00, 0.00, 0.00
56, 76395.60, 76401.63, 76511.07, 76480.80, 27966.46, 27979.53, 27998.00, 27996.43, 0.00, 0.00, 0.00
57, 76441.94, 76448.17, 76557.54, 76526.85, 27939.61, 27952.51, 27971.13, 27969.56, -0.04, 0.57, 0.80
58, 76445.40, 76451.73, 76560.87, 76530.05, 27923.83, 27936.66, 27955.46, 27953.76, 0.00, 0.00, 0.00
59, 76456.64, 76463.21, 76572.40, 76541.63, 27930.47, 27943.01, 27961.54, 27960.15, 0.00, 0.00, 0.00
60, 76539.16, 76545.63, 76654.43, 76624.21, 27897.39, 27910.15, 27928.86, 27927.19, 0.00, 0.00, 0.00
61, 76630.49, 76636.57, 76745.34, 76715.27, 27852.75, 27865.76, 27884.49, 27882.59, 0.00, 0.00, 0.00
62, 76652.02, 76658.08, 76767.20, 76736.84, 27827.74, 27840.44, 27859.30, 27857.16, 0.00, 0.00, 0.00
63, 76676.34, 76682.59, 76791.49, 76761.32, 27801.34, 27814.53, 27832.95, 27831.05, 0.00, 0.00, 0.00
64, 76756.23, 76762.44, 76871.63, 76841.25, 27753.62, 27766.50, 27785.07, 27783.35, 0.00, 0.00, 0.00
65, 76841.18, 76847.38, 76956.65, 76926.19, 27726.96, 27739.59, 27758.05, 27756.46, 0.00, 0.00, 0.00
66, 76861.52, 76867.69, 76977.04, 76946.44, 27725.84, 27738.63, 27757.04, 27755.79, 0.00, 0.00, 0.00
67, 76840.80, 76846.81, 76956.18, 76925.94, 27726.85, 27739.81, 27758.38, 27756.98, -0.10, 0.54, 0.78
68, 76869.26, 76875.29, 76984.39, 76954.08, 27717.26, 27730.15, 27748.86, 27747.37, 0.00, 0.00, 0.00
69, 76899.50, 76905.51, 77014.79, 76984.26, 27729.73, 27742.36, 27761.04, 27759.44, 0.00, 0.00, 0.00
70, 76852.49, 76858.55, 76967.98, 76937.49, 27764.17, 27776.51, 27795.29, 27793.63, 0.00, 0.00, 0.00
71, 76780.19, 76786.38, 76895.66, 76865.27, 27792.22, 27804.65, 27823.56, 27821.97, 0.00, 0.00, 0.00
72, 76792.77, 76799.05, 76908.05, 76877.86, 27756.66, 27769.11, 27788.38, 27786.46, 0.00, 0.00, 0.00
73, 76864.31, 76870.40, 76979.56, 76949.32, 27719.98, 27732.43, 27751.61, 27749.71, 0.00, 0.00, 0.00
74, 76888.92, 76895.02, 77004.51, 76974.27, 27723.29, 27736.12, 27754.76, 27753.15, 0.00, 0.00, 0.00
75, 76844.76, 76850.99, 76960.16, 76929.96, 27742.60, 27755.43, 27773.96, 27772.33, 0.00, 0.00, 0.00
76, 76879.02, 76885.70, 76994.78, 76964.45, 27732.05, 27744.57, 27762.97, 27761.56, 0.00, 0.00, 0.00
77, 76988.88, 76994.91, 77104.48, 77074.18, 27676.49, 27688.65, 27707.29, 27705.79, 0.00, 0.00, 0.00
78, 77062.66, 77068.86, 77178.45, 77148.09, 27661.20, 27673.60, 27692.00, 27690.68, -0.14, 0.55, 0.79
79, 77035.42, 77041.30, 77150.93, 77120.65, 27665.00, 27677.34, 27695.55, 27694.37, 0.00, 0.00, 0.00
80, 76989.40, 76995.56, 77105.34, 77074.69, 27672.67, 27685.32, 27703.94, 27702.39, 0.00, 0.00, 0.00
81, 77003.95, 77010.50, 77120.09, 77089.47, 27667.81, 27680.71, 27699.44, 27697.72, 0.00, 0.00, 0.00
82, 76932.91, 76939.17, 77048.90, 77018.50, 27736.01, 27748.59, 27767.10, 27765.78, 0.00, 0.00, 0.00
83, 76721.76, 76727.99, 76837.59, 76807.16, 27864.47, 27876.71, 27895.45, 27893.88, 0.00, 0.00, 0.00
84, 76575.69, 76582.17, 76691.65, 76660.87, 27918.87, 27931.72, 27950.59, 27948.46, 0.00, 0.00, 0.00
85, 76587.87, 76594.13, 76703.54, 76672.98, 27883.33, 27896.25, 27915.12, 27912.92, 0.00, 0.00, 0.00
86, 76618.96, 76625.38, 76734.68, 76703.95, 27872.45, 27884.87, 27903.98, 27902.02, 0.00, 0.00, 0.00
87, 76528.52, 76534.59, 76644.33, 76613.53, 27929.87, 27942.43, 27961.32, 27959.71, 0.00, 0.00, 0.00
88, 76428.52, 76434.54, 76543.97, 76513.41, 27969.72, 27982.24, 28000.90, 27999.34, -0.17, 0.55, 0.79
89, 76448.06, 76454.12, 76563.30, 76533.00, 27941.02, 27953.78, 27972.22, 27970.88, 0.00, 0.00, 0.00
90, 76443.66, 76449.76, 76558.92, 76528.44, 27951.46, 27964.40, 27982.66, 27981.39, 0.00, 0.00, 0.00
91, 76333.87, 76339.99, 76449.20, 76418.55, 28021.51, 28034.29, 28052.98, 28051.19, 0.00, 0.00, 0.00
92, 76275.68, 76281.72, 76391.33, 76360.28, 28022.94, 28035.63, 28054.54, 28052.76, 0.00, 0.00, 0.00
93, 76340.23, 76346.27, 76455.91, 76424.75, 27962.21, 27975.17, 27993.79, 27992.05, 0.00, 0.00, 0.00
94, 76398.13, 76404.38, 76513.93, 76482.98, 27945.69, 27958.52, 27977.10, 27975.42, 0.00, 0.00, 0.00
95, 76360.59, 76366.79, 76476.29, 76445.71, 27971.53, 27984.38, 28002.73, 28001.33, 0.00, 0.00, 0.00
96, 76315.20, 76320.95, 76430.38, 76399.91, 27992.97, 28005.71, 28024.13, 28022.67, 0.00, 0.00, 0.00
97, 76351.27, 76357.34, 76466.61, 76435.79, 27954.65, 27967.13, 27985.99, 27984.34, 0.00, 0.00, 0.00
98, 76423.49, 76429.73, 76539.05, 76508.59, 27940.64, 27952.93, 27972.11, 27970.44, -0.14, 0.53, 0.81
99, 76405.50, 76411.85, 76521.06, 76490.64, 28001.26, 28013.73, 28032.86, 28031.08, 0.00, 0.00, 0.00
100, 76348.73, 76354.96, 76464.17, 76433.91, 28017.98, 28030.49, 28049.43, 28047.77, 0.00, 0.00, 0.00
101, 76372.80, 76378.88, 76487.96, 76457.80, 27978.48, 27991.51, 28010.45, 28008.70, 0.00, 0.00, 0.00
102, 76427.61, 76433.89, 76542.83, 76512.68, 27950.72, 27963.22, 27982.46, 27980.63, 0.00, 0.00, 0.00
103, 76410.55, 76416.63, 76526.13, 76495.52, 27982.35, 27994.82, 28013.51, 28012.12, 0.00, 0.00, 0.00
104, 76329.69, 76336.05, 76445.49, 76414.82, 28011.54, 28024.33, 28042.90, 28041.67, 0.00, 0.00, 0.00
105, 76316.54, 76322.94, 76432.30, 76401.37, 28006.06, 28018.85, 28037.92, 28035.99, 0.00, 0.00, 0.00
106, 76358.36, 76364.55, 76473.90, 76443.25, 27980.49, 27993.19, 28012.01, 28010.49, 0.00, 0.00, 0.00
107, 76332.86, 76339.05, 76448.80, 76417.95, 28007.94, 28020.62, 28039.44, 28037.89, 0.00, 0.00, 0.00
108, 76228.27, 76234.51, 76344.13, 76313.14, 28062.35, 28075.02, 28093.79, 28092.05, -0.12, 0.52, 0.79
109, 76109.95, 76116.41, 76225.62, 76194.93, 28127.23, 28139.97, 28159.11, 28157.38, 0.00, 0.00, 0.00
110, 76043.88, 76050.65, 76159.56, 76128.97, 28184.14, 28197.04, 28215.90, 28214.47, 0.00, 0.00, 0.00
111, 75952.88, 75959.25, 76068.37, 76037.75, 28241.79, 28255.06, 28273.23, 28271.76, 0.00, 0.00, 0.00
112, 75835.53, 75841.88, 75950.84, 75920.42, 28300.86, 28313.76, 28332.47, 28330.79, 0.00, 0.00, 0.00
113, 75815.75, 75822.23, 75931.29, 75900.46, 28282.96, 28295.72, 28314.72, 28312.98, 0.00, 0.00, 0.00
114, 75905.16, 75911.75, 76020.76, 75990.14, 28222.27, 28235.26, 28253.99, 28252.34, 0.00, 0.00, 0.00
115, 75897.60, 75904.06, 76013.20, 75982.59, 28248.45, 28261.68, 28279.94, 28278.46, 0.00, 0.00, 0.00
116, 75688.55, 75694.90, 75804.22, 75773.33, 28378.58, 28391.56, 28410.34, 28408.57, 0.00, 0.00, 0.00
117, 75464.13, 75470.51, 75579.70, 75548.55, 28479.05, 28491.86, 28510.90, 28509.25, 0.00, 0.00, 0.00
118, 75636.69, 75643.58, 75751.98, 75721.29, 28320.13, 28332.94, 28351.69, 28349.99, -0.10, 0.51, 0.77
119, 76221.66, 76228.19, 76336.21, 76306.08, 27945.63, 27958.28, 27976.81, 27975.24, 0.00, 0.00, 0.00
120, 76926.30, 76932.58, 77040.42, 77010.90, 27540.77, 27553.71, 27571.95, 27570.07, 0.00, 0.00, 0.00
121, 77195.62, 77201.67, 77310.28, 77280.44, 27457.89, 27470.72, 27489.16, 27487.50, 0.00, 0.00, 0.00
122, 76940.63, 76946.68, 77056.05, 77025.61, 27698.37, 27711.07, 27729.69, 27728.23, 0.00, 0.00, 0.00
123, 76754.88, 76761.34, 76870.51, 76839.95, 27819.40, 27832.14, 27850.74, 27849.36, 0.00, 0.00, 0.00
124, 76668.20, 76674.64, 76783.85, 76753.30, 27877.79, 27890.39, 27909.13, 27907.34, 0.00, 0.00, 0.00
125, 76596.74, 76602.87, 76712.26, 76682.09, 27913.33, 27925.80, 27944.57, 27942.76, 0.00, 0.00, 0.00
126, 76622.00, 76628.13, 76737.42, 76706.71, 27875.22, 27887.78, 27906.35, 27904.95, 0.00, 0.00, 0.00
127, 76671.58, 76677.74, 76786.76, 76756.52, 27870.59, 27883.00, 27901.95, 27900.07, 0.00, 0.00, 0.00
128, 76687.18, 76693.37, 76802.65, 76772.23, 27887.96, 27900.88, 27919.43, 27917.53, 0.00, 0.00, 0.00
129, 76636.17, 76642.84, 76751.93, 76721.60, 27902.42, 27915.45, 27933.82, 27931.97, -0.10, 0.51, 0.79
130, 76571.95, 76577.99, 76687.34, 76656.84, 27924.95, 27937.80, 27956.51, 27954.68, 0.00, 0.00, 0.00
131, 76488.94, 76495.20, 76605.05, 76574.08, 27984.25, 27997.06, 28015.90, 28014.27, 0.00, 0.00, 0.00
132, 76467.84, 76473.98, 76583.76, 76552.82, 28015.16, 28027.50, 28046.61, 28044.98, 0.00, 0.00, 0.00
133, 76451.99, 76458.09, 76567.66, 76536.93, 28014.07, 28026.61, 28045.54, 28044.04, 0.00, 0.00, 0.00
134, 76369.02, 76375.04, 76484.94, 76453.85, 28071.31, 28084.05, 28102.58, 28101.24, 0.00, 0.00, 0.00
135, 76345.42, 76351.30, 76460.98, 76430.31, 28076.16, 28088.95, 28107.38, 28105.69, 0.00, 0.00, 0.00
136, 76399.73, 76405.84, 76515.16, 76484.74, 28015.36, 28028.21, 28046.77, 28045.16, 0.00, 0.00, 0.00
137, 76505.23, 76511.72, 76620.93, 76590.57, 27946.21, 27958.99, 27977.63, 27975.71, 0.00, 0.00, 0.00
138, 76512.01, 76518.55, 76627.79, 76597.13, 27935.75, 27948.42, 27966.97, 27965.16, 0.00, 0.00, 0.00
139, 76439.81, 76446.09, 76555.57, 76524.86, 27959.95, 27973.14, 27991.42, 27990.02, -0.10, 0.53, 0.82
140, 76449.65, 76455.73, 76565.32, 76535.01, 27959.80, 27972.83, 27991.29, 27989.88, 0.00, 0.00, 0.00
141, 76530.67, 76537.02, 76646.66, 76616.13, 27939.39, 27952.26, 27970.70, 27969.36, 0.00, 0.00, 0.00
142, 76500.12, 76506.46, 76615.92, 76585.14, 27964.96, 27977.77, 27996.63, 27994.80, 0.00, 0.00, 0.00
143, 76381.45, 76387.82, 76497.30, 76466.61, 28054.41, 28067.51, 28086.40, 28084.77, 0.00, 0.00, 0.00
144, 76348.82, 76355.03, 76464.27, 76434.00, 28059.31, 28072.05, 28090.91, 28089.35, 0.00, 0.00, 0.00
145, 76413.05, 76418.84, 76528.37, 76497.99, 27999.11, 28011.88, 28030.58, 28029.02, 0.00, 0.00, 0.00
146, 76460.33, 76466.19, 76575.98, 76545.40, 27957.94, 27970.59, 27989.39, 27987.63, 0.00, 0.00, 0.00
147, 76391.27, 76397.45, 76507.20, 76476.34, 28006.42, 28018.89, 28037.71, 28036.26, 0.00, 0.00, 0.00
148, 76364.76, 76371.05, 76480.24, 76449.69, 28026.81, 28039.53, 28058.17, 28056.49, 0.00, 0.00, 0.00
149, 76479.48, 76485.86, 76595.24, 76564.84, 27974.37, 27987.47, 28006.11, 28004.48, -0.08, 0.52, 0.85
150, 76529.24, 76535.45, 76645.07, 76614.38, 27931.88, 27944.84, 27963.78, 27961.90, 0.00, 0.00, 0.00
151, 76474.01, 76480.47, 76589.61, 76559.33, 27962.01, 27974.88, 27993.50, 27991.56, 0.00, 0.00, 0.00
152, 76432.93, 76439.19, 76548.38, 76518.02, 28000.77, 28013.69, 28031.79, 28030.34, 0.00, 0.00, 0.00
153, 76516.73, 76522.94, 76632.13, 76601.77, 27965.59, 27978.33, 27997.06, 27995.25, 0.00, 0.00, 0.00
154, 76598.51, 76604.50, 76713.87, 76683.47, 27884.07, 27896.74, 27915.61, 27913.71, 0.00, 0.00, 0.00
155, 76547.86, 76554.07, 76663.69, 76632.73, 27907.02, 27919.56, 27938.47, 27936.80, 0.00, 0.00, 0.00
156, 76510.27, 76516.84, 76626.36, 76595.13, 27974.79, 27987.36, 28006.38, 28004.57, 0.00, 0.00, 0.00
157, 76560.58, 76566.97, 76676.27, 76645.42, 27952.91, 27965.56, 27984.32, 27982.37, 0.00, 0.00, 0.00
158, 76632.13, 76638.50, 76747.82, 76717.27, 27901.37, 27914.15, 27932.82, 27931.28, 0.00, 0.00, 0.00
159, 76606.89, 76613.46, 76722.72, 76692.09, 27924.84, 27937.60, 27956.40, 27954.57, -0.11, 0.53, 0.88
160, 76515.30, 76521.87, 76631.14, 76600.48, 27982.62, 27995.25, 28013.75, 28012.12, 0.00, 0.00, 0.00
161, 76569.09, 76575.45, 76684.79, 76654.21, 27974.64, 27987.13, 28005.66, 28004.25, 0.00, 0.00, 0.00
162, 76641.89, 76648.33, 76757.63, 76727.05, 27924.55, 27937.36, 27955.91, 27954.34, 0.00, 0.00, 0.00
163, 76637.55, 76643.86, 76753.45, 76722.56, 27922.42, 27934.72, 27953.38, 27951.77, 0.00, 0.00, 0.00
164, 76556.16, 76562.16, 76671.80, 76641.02, 27972.40, 27984.54, 28003.25, 28002.18, 0.00, 0.00, 0.00
165, 76590.02, 76596.09, 76705.87, 76675.11, 27987.69, 28000.45, 28019.25, 28017.71, 0.00, 0.00, 0.00
166, 76667.29, 76673.81, 76783.38, 76752.65, 27937.73, 27950.70, 27969.47, 27967.75, 0.00, 0.00, 0.00
167, 76661.72, 76668.29, 76777.86, 76747.22, 27928.46, 27941.15, 27960.20, 27958.41, 0.00, 0.00, 0.00
168, 76598.55, 76604.74, 76714.34, 76683.76, 27976.72, 27989.57, 28008.25, 28006.49, 0.00, 0.00, 0.00
169, 76608.81, 76614.98, 76724.55, 76693.93, 27970.01, 27982.71, 28001.33, 27999.78, 0.00, 0.00, 0.00
170, 76667.29, 76673.77, 76783.11, 76752.06, 27912.66, 27925.31, 27943.77, 27942.45, -0.14, 0.53, 0.89
171, 76693.93, 76700.37, 76809.84, 76779.11, 27893.26, 27906.04, 27924.44, 27923.05, 0.00, 0.00, 0.00
172, 76634.45, 76640.71, 76750.48, 76719.86, 27961.74, 27974.59, 27993.08, 27991.54, 0.00, 0.00, 0.00
173, 76563.08, 76569.48, 76679.06, 76648.51, 28007.79, 28020.75, 28039.44, 28038.09, 0.00, 0.00, 0.00
174, 76635.34, 76641.73, 76751.17, 76720.69, 27963.22, 27976.02, 27994.49, 27992.85, 0.00, 0.00, 0.00
175, 76670.77, 76677.30, 76786.73, 76756.11, 27939.48, 27952.00, 27970.93, 27969.05, 0.00, 0.00, 0.00
176, 76579.35, 76585.77, 76695.63, 76664.83, 27981.75, 27994.17, 28013.04, 28011.34, 0.00, 0.00, 0.00
177, 76528.52, 76534.74, 76644.87, 76614.05, 28025.85, 28038.43, 28057.32, 28055.48, 0.00, 0.00, 0.00
178, 76588.79, 76595.13, 76704.91, 76674.26, 27992.81, 28005.15, 28023.97, 28022.22, 0.00, 0.00, 0.00
179, 76650.56, 76656.94, 76766.41, 76736.13, 27958.43, 27971.04, 27989.88, 27988.29, 0.00, 0.00, 0.00
181, 76625.27, 76631.48, 76741.38, 76710.76, 27988.52, 28000.88, 28019.79, 28018.54, 0.00, 0.00, 0.00
182, 76770.87, 76777.26, 76886.73, 76856.45, 27905.06, 27917.15, 27936.46, 27934.72, 0.00, 0.00, 0.00
183, 76942.39, 76948.65, 77057.95, 77027.95, 27800.12, 27812.48, 27831.12, 27829.55, 0.00, 0.00, 0.00
184, 77159.31, 77165.39, 77274.91, 77244.81, 27660.73, 27673.45, 27692.07, 27690.41, 0.00, 0.00, 0.00
185, 77496.31, 77502.93, 77612.02, 77582.08, 27454.60, 27467.30, 27486.12, 27484.38, 0.00, 0.00, 0.00
186, 78141.95, 78148.42, 78257.27, 78227.73, 27105.71, 27117.83, 27136.36, 27134.86, 0.00, 0.00, 0.00
187, 78954.61, 78960.62, 79069.45, 79040.80, 26675.53, 26687.18, 26705.73, 26704.16, 0.00, 0.00, 0.00
188, 79743.11, 79749.03, 79858.11, 79829.61, 26248.97, 26260.88, 26279.53, 26277.85, 0.00, 0.00, 0.00
189, 80603.49, 80609.51, 80718.56, 80690.53, 25811.77, 25823.89, 25842.50, 25840.83, 0.00, 0.00, 0.00
190, 82197.95, 82203.97, 82312.22, 82285.66, 24869.87, 24881.25, 24899.75, 24898.28, -0.10, 0.49, 0.78
191, 84364.35, 84369.92, 84478.17, 84453.02, 23660.01, 23671.53, 23689.00, 23687.66, 0.00, 0.00, 0.00
192, 85740.15, 85745.80, 85855.39, 85829.91, 23115.90, 23127.21, 23144.65, 23143.35, 0.00, 0.00, 0.00
193, 85881.01, 85886.42, 85998.49, 85971.58, 23313.07, 23324.20, 23342.06, 23340.56, 0.00, 0.00, 0.00
194, 85167.09, 85172.84, 85286.74, 85258.58, 23964.76, 23975.73, 23993.79, 23992.54, 0.00, 0.00, 0.00
195, 84211.16, 84216.90, 84331.97, 84302.38, 24638.80, 24649.97, 24667.96, 24666.63, 0.00, 0.00, 0.00
196, 83302.40, 83308.15, 83423.50, 83393.10, 25177.32, 25188.98, 25207.16, 25205.59, 0.00, 0.00, 0.00
197, 82534.93, 82541.05, 82656.10, 82625.55, 25586.91, 25598.80, 25617.29, 25615.77, 0.00, 0.00, 0.00
198, 81988.54, 81994.78, 82109.84, 82078.87, 25870.94, 25882.80, 25901.27, 25899.37, 0.00, 0.00, 0.00
199, 81576.69, 81582.99, 81697.77, 81666.72, 26057.35, 26069.20, 26087.73, 26085.74, 0.00, 0.00, 0.00
200, 81235.38, 81241.68, 81355.99, 81324.98, 26226.04, 26237.50, 26256.26, 26254.67, -0.02, 0.51, 0.72
201, 80912.22, 80918.38, 81032.40, 81001.29, 26356.26, 26368.04, 26386.86, 26385.25, 0.00, 0.00, 0.00
202, 80685.86, 80692.23, 80806.36, 80775.16, 26445.98, 26458.00, 26476.69, 26474.70, 0.00, 0.00, 0.00
203, 80559.87, 80566.13, 80680.14, 80648.96, 26514.35, 26526.56, 26545.15, 26543.16, 0.00, 0.00, 0.00
204, 80425.13, 80430.98, 80544.80, 80513.95, 26569.88, 26581.88, 26600.77, 26598.64, 0.00, 0.00, 0.00
205, 80254.85, 80260.98, 80374.77, 80343.99, 26643.97, 26656.49, 26674.95, 26672.80, 0.00, 0.00, 0.00
206, 80091.41, 80097.81, 80210.98, 80180.33, 26718.47, 26730.58, 26749.14, 26747.21, 0.00, 0.00, 0.00
207, 79964.39, 79970.54, 80083.75, 80052.99, 26770.66, 26782.62, 26801.17, 26799.79, 0.00, 0.00, 0.00
208, 79873.87, 79880.26, 79993.29, 79962.34, 26803.99, 26816.19, 26834.63, 26833.00, 0.00, 0.00, 0.00
209, 79798.27, 79804.30, 79917.45, 79886.52, 26818.36, 26830.85, 26848.98, 26847.64, 0.00, 0.00, 0.00
210, 79765.23, 79771.43, 79884.39, 79853.17, 26828.20, 26840.82, 26859.11, 26857.54, 0.00, 0.00, 0.00
211, 79781.46, 79787.70, 79900.66, 79869.71, 26821.44, 26833.96, 26852.51, 26850.63, 0.03, 0.57, 0.74
212, 79689.82, 79696.10, 79809.12, 79778.18, 26871.38, 26883.63, 26902.47, 26900.50, 0.00, 0.00, 0.00
213, 79479.67, 79486.00, 79598.94, 79567.91, 26977.15, 26989.42, 27008.01, 27006.38, 0.00, 0.00, 0.00
214, 79321.40, 79327.63, 79440.55, 79409.46, 27033.94, 27046.57, 27065.23, 27063.22, 0.00, 0.00, 0.00
215, 79198.35, 79204.59, 79317.42, 79286.53, 27083.25, 27095.77, 27114.19, 27112.58, 0.00, 0.00, 0.00
216, 79071.20, 79077.61, 79189.95, 79159.33, 27151.22, 27163.31, 27182.16, 27180.57, 0.00, 0.00, 0.00
217, 78993.72, 79000.27, 79112.61, 79081.66, 27131.69, 27143.71, 27162.64, 27160.74, 0.00, 0.00, 0.00
218, 79065.07, 79071.51, 79183.82, 79152.89, 27033.07, 27045.03, 27063.92, 27062.26, 0.00, 0.00, 0.00
219, 79157.60, 79164.20, 79276.54, 79245.58, 26999.56, 27011.68, 27030.10, 27028.76, 0.00, 0.00, 0.00
220, 79137.53, 79143.92, 79256.24, 79225.27, 27032.06, 27044.31, 27062.64, 27061.32, 0.00, 0.00, 0.00
221, 79078.99, 79084.96, 79197.32, 79166.30, 27071.11, 27083.81, 27101.89, 27100.17, 0.04, 0.61, 0.80
222, 79033.30, 79039.50, 79151.68, 79120.81, 27048.87, 27061.55, 27079.83, 27077.97, 0.00, 0.00, 0.00
223, 79010.20, 79016.72, 79128.86, 79098.02, 27060.94, 27073.35, 27091.90, 27090.27, 0.00, 0.00, 0.00
224, 78917.05, 78923.54, 79035.90, 79005.01, 27150.98, 27163.38, 27181.69, 27180.32, 0.00, 0.00, 0.00
225, 78734.17, 78740.56, 78852.86, 78821.73, 27239.02, 27251.49, 27269.84, 27268.30, 0.00, 0.00, 0.00
226, 78608.02, 78614.37, 78726.93, 78695.46, 27299.37, 27311.80, 27330.19, 27328.74, 0.00, 0.00, 0.00
227, 78513.77, 78520.52, 78632.63, 78601.34, 27367.05, 27379.50, 27398.10, 27396.38, 0.00, 0.00, 0.00
228, 78309.65, 78316.53, 78428.71, 78397.00, 27505.16, 27517.50, 27535.98, 27534.24, 0.00, 0.00, 0.00
229, 77924.91, 77931.27, 78043.73, 78012.01, 27727.67, 27740.01, 27758.85, 27756.91, 0.00, 0.00, 0.00
230, 77295.86, 77302.25, 77414.80, 77382.97, 28080.76, 28093.53, 28112.46, 28110.47, 0.00, 0.00, 0.00
231, 75508.08, 75514.88, 75629.16, 75594.96, 29269.70, 29282.42, 29301.75, 29299.56, 0.08, 0.61, 0.83
232, 71929.61, 71936.78, 72052.21, 72014.91, 31446.47, 31459.79, 31479.90, 31477.83, 0.00, 0.00, 0.00
233, 74368.79, 74375.67, 74482.89, 74452.27, 29151.10, 29164.04, 29182.75, 29181.52, 0.00, 0.00, 0.00
234, 78117.02, 78123.63, 78229.92, 78202.25, 26830.79, 26843.04, 26861.12, 26859.93, 0.00, 0.00, 0.00
235, 78652.95, 78659.32, 78768.20, 78739.02, 26850.57, 26863.02, 26881.06, 26880.05, 0.00, 0.00, 0.00
236, 79470.57, 79476.88, 79585.93, 79557.30, 26437.49, 26449.82, 26468.04, 26466.88, 0.00, 0.00, 0.00
237, 80217.16, 80222.91, 80332.97, 80304.59, 26146.42, 26158.34, 26176.62, 26175.32, 0.00, 0.00, 0.00
238, 79448.55, 79454.26, 79566.51, 79535.98, 26829.67, 26842.01, 26860.09, 26858.59, 0.00, 0.00, 0.00
239, 77862.48, 77868.87, 77982.69, 77950.01, 27901.88, 27914.33, 27933.00, 27931.32, 0.00, 0.00, 0.00
240, 76645.70, 76652.42, 76765.52, 76732.59, 28548.21, 28560.74, 28579.72, 28578.13, 0.00, 0.00, 0.00
241, 76840.06, 76846.84, 76957.66, 76926.34, 28250.01, 28262.77, 28281.57, 28280.05, 0.15, 0.58, 0.74
242, 77053.23, 77059.55, 77170.38, 77139.47, 28070.86, 28083.80, 28102.54, 28100.77, 0.00, 0.00, 0.00
243, 76854.26, 76860.41, 76971.65, 76940.49, 28203.72, 28216.71, 28235.39, 28233.47, 0.00, 0.00, 0.00
244, 76724.91, 76731.37, 76842.21, 76810.96, 28258.57, 28271.49, 28290.09, 28288.32, 0.00, 0.00, 0.00
245, 76761.01, 76767.66, 76878.09, 76846.77, 28213.35, 28226.36, 28244.98, 28243.24, 0.00, 0.00, 0.00
246, 76795.47, 76802.05, 76912.48, 76881.57, 28153.90, 28166.62, 28185.41, 28183.63, 0.00, 0.00, 0.00
247, 76815.99, 76822.74, 76933.23, 76902.13, 28119.23, 28131.86, 28150.88, 28149.07, 0.00, 0.00, 0.00
248, 76883.98, 76890.45, 77000.80, 76969.80, 28055.44, 28068.22, 28087.16, 28085.17, 0.00, 0.00, 0.00
249, 77034.26, 77040.56, 77151.13, 77119.98, 27972.13, 27985.14, 28003.81, 28001.57, 0.00, 0.00, 0.00
250, 77103.73, 77109.98, 77220.42, 77189.51, 27946.59, 27959.30, 27977.95, 27975.96, 0.00, 0.00, 0.00
251, 77082.16, 77088.44, 77198.59, 77167.70, 27948.38, 27961.32, 27979.98, 27978.24, 0.23, 0.61, 0.64
252, 77091.86, 77098.23, 77208.89, 77177.48, 27956.51, 27969.34, 27987.94, 27986.04, 0.00, 0.00, 0.00
253, 77171.34, 77178.11, 77288.33, 77257.26, 27919.90, 27932.37, 27951.10, 27949.36, 0.00, 0.00, 0.00
254, 77235.02, 77241.63, 77351.90, 77321.14, 27889.97, 27902.67, 27921.26, 27919.81, 0.00, 0.00, 0.00
255, 77191.32, 77197.94, 77308.34, 77277.38, 27939.50, 27952.15, 27970.95, 27969.43, 0.00, 0.00, 0.00
0, 77104.44, 77110.79, 77221.34, 77190.36, 27991.04, 28003.94, 28022.36, 28020.91, 0.00, 0.00, 0.00
1, 77145.08, 77151.58, 77262.22, 77230.95, 27965.65, 27978.48, 27996.90, 27995.54, 0.00, 0.00, 0.00
2, 77205.09, 77211.33, 77321.97, 77290.83, 27916.03, 27928.55, 27947.23, 27945.63, 0.00, 0.00, 0.00
3, 77145.45, 77151.83, 77261.95, 77231.16, 27938.41, 27951.10, 27969.77, 27968.02, 0.00, 0.00, 0.00
4, 77072.12, 77078.24, 77188.80, 77157.80, 27991.71, 28004.48, 28023.16, 28021.84, 0.00, 0.00, 0.00
5, 77077.06, 77083.68, 77194.05, 77163.20, 27984.47, 27997.66, 28016.23, 28014.76, 0.00, 0.00, 0.00
6, 77137.90, 77144.27, 77254.71, 77224.02, 27937.42, 27950.27, 27969.01, 27967.15, 0.24, 0.65, 0.64
7, 77109.96, 77116.29, 77226.80, 77195.97, 27945.22, 27958.10, 27976.56, 27974.97, 0.00, 0.00, 0.00
8, 77003.73, 77010.07, 77120.53, 77089.87, 27996.03, 28008.70, 28027.28, 28025.87, 0.00, 0.00, 0.00
9, 76999.81, 77006.14, 77116.51, 77085.80, 28009.39, 28022.04, 28040.87, 28039.21, 0.00, 0.00, 0.00
10, 77073.87, 77080.16, 77190.45, 77159.83, 27970.73, 27983.24, 28002.15, 28000.41, 0.00, 0.00, 0.00
11, 77060.01, 77066.48, 77176.73, 77145.91, 27959.88, 27972.40, 27991.33, 27989.70, 0.00, 0.00, 0.00
12, 76946.17, 76952.47, 77062.94, 77031.93, 28008.28, 28020.82, 28039.66, 28038.01, 0.00, 0.00, 0.00
13, 76921.09, 76927.57, 77038.10, 77006.95, 28033.36, 28045.92, 28064.58, 28063.20, 0.00, 0.00, 0.00
14, 76978.58, 76984.86, 77095.43, 77064.38, 27981.21, 27994.13, 28012.50, 28011.34, 0.00, 0.00, 0.00
15, 76989.89, 76996.23, 77106.54, 77075.49, 27959.80, 27972.71, 27991.07, 27989.50, 0.00, 0.00, 0.00
16, 76895.72, 76902.05, 77012.13, 76981.48, 28010.36, 28023.10, 28041.89, 28039.77, 0.20, 0.62, 0.72
17, 76835.82, 76842.05, 76952.29, 76921.49, 28051.01, 28063.58, 28082.46, 28080.65, 0.00, 0.00, 0.00
18, 76906.41, 76912.41, 77022.86, 76992.05, 28010.38, 28023.37, 28041.89, 28040.31, 0.00, 0.00, 0.00
19, 76957.86, 76964.01, 77074.58, 77043.73, 27977.88, 27990.82, 28009.71, 28007.92, 0.00, 0.00, 0.00
20, 76888.68, 76895.07, 77005.60, 76974.58, 28031.95, 28044.87, 28063.55, 28061.85, 0.00, 0.00, 0.00
21, 76800.16, 76806.60, 76916.91, 76886.04, 28090.67, 28103.54, 28121.82, 28120.24, 0.00, 0.00, 0.00
22, 76849.38, 76855.64, 76965.77, 76934.75, 28057.21, 28069.83, 28088.23, 28086.55, 0.00, 0.00, 0.00
23, 76896.46, 76902.72, 77012.95, 76982.11, 28001.39, 28014.07, 28032.75, 28030.94, 0.00, 0.00, 0.00
24, 76835.93, 76842.32, 76952.60, 76921.91, 28056.62, 28069.30, 28088.05, 28086.22, 0.00, 0.00, 0.00
25, 76735.95, 76742.34, 76852.83, 76821.80, 28117.64, 28130.16, 28149.12, 28147.39, 0.00, 0.00, 0.00
26, 76750.59, 76756.78, 76867.11, 76836.11, 28084.79, 28097.37, 28116.44, 28114.83, 0.16, 0.58, 0.74
27, 76826.88, 76833.07, 76942.99, 76912.23, 28018.71, 28031.39, 28049.92, 28048.38, 0.00, 0.00, 0.00
28, 76793.26, 76799.45, 76909.65, 76879.00, 28035.32, 28048.13, 28066.37, 28065.05, 0.00, 0.00, 0.00
29, 76705.71, 76711.85, 76822.09, 76791.34, 28103.38, 28116.39, 28134.65, 28133.34, 0.00, 0.00, 0.00
30, 76739.64, 76745.78, 76856.07, 76825.29, 28096.77, 28109.57, 28128.11, 28126.41, 0.00, 0.00, 0.00
31, 76843.73, 76850.03, 76960.09, 76929.54, 28026.63, 28039.39, 28058.05, 28056.38, 0.00, 0.00, 0.00
32, 76844.06, 76850.64, 76960.54, 76929.94, 28017.98, 28030.65, 28049.45, 28047.68, 0.00, 0.00, 0.00
33, 76756.42, 76762.73, 76873.03, 76842.03, 28075.82, 28088.68, 28107.45, 28105.66, 0.00, 0.00, 0.00
34, 76753.67, 76759.84, 76870.26, 76839.17, 28098.89, 28111.63, 28130.29, 28128.80, 0.00, 0.00, 0.00
35, 76858.35, 76864.54, 76974.63, 76943.93, 28030.85, 28043.35, 28062.14, 28060.65, 0.00, 0.00, 0.00
36, 76879.56, 76886.04, 76996.05, 76965.39, 28002.64, 28015.21, 28033.80, 28032.04, 0.16, 0.58, 0.69
37, 76787.76, 76793.98, 76904.28, 76873.48, 28053.34, 28066.10, 28084.77, 28083.02, 0.00, 0.00, 0.00
38, 76757.56, 76763.63, 76873.75, 76843.04, 28083.65, 28096.61, 28115.45, 28113.44, 0.00, 0.00, 0.00
39, 76861.30, 76867.67, 76977.23, 76946.93, 28018.34, 28031.43, 28050.37, 28048.29, 0.00, 0.00, 0.00
40, 76909.27, 76915.77, 77025.52, 76995.14, 27968.96, 27981.70, 28000.79, 27998.55, 0.00, 0.00, 0.00
41, 76839.15, 76845.43, 76955.60, 76924.69, 28008.81, 28021.80, 28040.64, 28038.79, 0.00, 0.00, 0.00
42, 76790.60, 76797.20, 76907.05, 76876.59, 28043.93, 28057.00, 28075.60, 28073.88, 0.00, 0.00, 0.00
43, 76863.73, 76870.20, 76980.10, 76949.70, 28009.69, 28022.92, 28041.63, 28039.90, 0.00, 0.00, 0.00
44, 76942.62, 76949.32, 77058.95, 77028.40, 27952.98, 27965.76, 27984.43, 27982.77, 0.00, 0.00, 0.00
45, 76896.41, 76902.96, 77012.66, 76982.13, 27994.08, 28007.07, 28025.46, 28024.01, 0.00, 0.00, 0.00
46, 76826.70, 76832.95, 76943.17, 76911.88, 28052.47, 28065.27, 28084.16, 28082.51, 0.00, 0.00, 0.00
47, 76897.11, 76903.61, 77013.56, 76982.63, 28019.01, 28031.75, 28050.57, 28048.94, 0.18, 0.58, 0.66
48, 76988.16, 76994.70, 77104.59, 77073.75, 27960.40, 27973.12, 27991.54, 27990.22, 0.00, 0.00, 0.00
49, 76957.75, 76964.27, 77074.52, 77043.84, 27992.63, 28005.55, 28023.90, 28022.40, 0.00, 0.00, 0.00
50, 76858.21, 76864.80, 76975.18, 76944.24, 28036.75, 28049.40, 28068.25, 28066.46, 0.00, 0.00, 0.00
51, 76887.70, 76894.00, 77004.59, 76973.44, 28002.51, 28015.27, 28033.98, 28032.21, 0.00, 0.00, 0.00
52, 76993.94, 77000.04, 77110.45, 77079.34, 27947.32, 27960.15, 27978.59, 27976.98, 0.00, 0.00, 0.00
53, 76963.00, 76969.41, 77079.59, 77048.43, 27972.96, 27985.52, 28004.07, 28002.58, 0.00, 0.00, 0.00
54, 76861.37, 76867.67, 76978.13, 76946.91, 28037.85, 28050.54, 28069.16, 28067.38, 0.00, 0.00, 0.00
55, 76861.43, 76867.67, 76978.02, 76946.98, 28031.86, 28044.69, 28063.40, 28061.41, 0.00, 0.00, 0.00
56, 76942.81, 76948.96, 77059.07, 77028.29, 27980.85, 27993.48, 28012.35, 28010.24, 0.00, 0.00, 0.00
57, 76942.39, 76948.54, 77059.05, 77028.11, 27973.01, 27985.66, 28004.57, 28002.49, 0.17, 0.59, 0.73
58, 76844.16, 76850.50, 76960.83, 76929.80, 28033.94, 28046.81, 28065.50, 28063.91, 0.00, 0.00, 0.00
59, 76825.83, 76832.40, 76942.16, 76911.23, 28050.30, 28063.15, 28082.02, 28079.94, 0.00, 0.00, 0.00
60, 76916.33, 76922.81, 77032.49, 77001.84, 27985.72, 27998.60, 28017.08, 28015.29, 0.00, 0.00, 0.00
61, 76942.26, 76948.85, 77058.33, 77027.64, 27955.95, 27968.71, 27986.95, 27985.68, 0.00, 0.00, 0.00
62, 76859.80, 76866.08, 76976.19, 76945.27, 28013.69, 28026.25, 28045.02, 28043.64, 0.00, 0.00, 0.00
63, 76838.16, 76844.53, 76954.30, 76923.73, 28050.75, 28063.04, 28081.72, 28080.23, 0.00, 0.00, 0.00
64, 76937.12, 76943.59, 77053.05, 77022.52, 28006.71, 28019.23, 28038.16, 28036.15, 0.00, 0.00, 0.00
65, 76990.67, 76996.98, 77106.99, 77076.28, 27971.20, 27984.25, 28002.98, 28001.06, 0.00, 0.00, 0.00
66, 76896.10, 76902.31, 77012.69, 76981.69, 28024.71, 28037.74, 28056.56, 28054.59, 0.00, 0.00, 0.00
67, 76828.38, 76834.77, 76944.73, 76914.05, 28066.50, 28079.45, 28098.06, 28096.50, 0.09, 0.58, 0.79
68, 76883.90, 76890.18, 77000.17, 76969.48, 28026.58, 28039.44, 28058.03, 28056.56, 0.00, 0.00, 0.00
69, 76955.34, 76961.48, 77071.56, 77040.90, 27960.20, 27972.85, 27991.27, 27989.66, 0.00, 0.00, 0.00
70, 76878.13, 76884.55, 76994.52, 76964.05, 28005.86, 28018.94, 28037.31, 28035.81, 0.00, 0.00, 0.00
71, 76813.51, 76819.88, 76930.01, 76899.03, 28085.59, 28098.69, 28117.55, 28115.54, 0.00, 0.00, 0.00
72, 76878.94, 76885.44, 76995.45, 76964.20, 28048.40, 28061.12, 28080.52, 28078.46, 0.00, 0.00, 0.00
73, 76957.91, 76964.36, 77074.49, 77043.24, 27978.26, 27991.11, 28010.02, 28007.94, 0.00, 0.00, 0.00
74, 76917.06, 76923.48, 77033.70, 77002.72, 28022.18, 28035.12, 28053.72, 28052.04, 0.00, 0.00, 0.00
75, 76823.97, 76830.09, 76940.38, 76909.24, 28095.54, 28108.05, 28126.72, 28125.45, 0.00, 0.00, 0.00
76, 76862.13, 76868.49, 76978.82, 76947.94, 28071.20, 28083.65, 28102.49, 28100.95, 0.00, 0.00, 0.00
77, 76950.15, 76956.27, 77066.48, 77035.69, 27985.03, 27997.75, 28016.88, 28014.89, 0.04, 0.58, 0.81
78, 76949.97, 76956.23, 77066.40, 77035.62, 27988.25, 28001.17, 28019.90, 28018.22, 0.00, 0.00, 0.00
79, 76861.84, 76868.30, 76978.35, 76947.98, 28047.88, 28060.63, 28079.47, 28077.88, 0.00, 0.00, 0.00
80, 76870.75, 76876.99, 76987.50, 76956.65, 28054.08, 28067.17, 28085.95, 28084.07, 0.00, 0.00, 0.00
81, 76979.16, 76985.62, 77095.81, 77064.74, 27999.61, 28012.70, 28031.14, 28029.40, 0.00, 0.00, 0.00
82, 76996.44, 77002.88, 77112.82, 77081.98, 27990.37, 28003.34, 28022.00, 28020.30, 0.00, 0.00, 0.00
83, 76896.01, 76902.20, 77012.48, 76981.22, 28032.64, 28045.58, 28064.38, 28062.48, 0.00, 0.00, 0.00
84, 76877.23, 76883.70, 76993.73, 76962.77, 28035.52, 28048.04, 28067.04, 28065.03, 0.00, 0.00, 0.00
85, 76978.35, 76984.95, 77094.92, 77064.30, 27965.29, 27977.92, 27996.70, 27994.91, 0.00, 0.00, 0.00
86, 77018.68, 77025.09, 77135.13, 77104.27, 27944.84, 27957.43, 27976.09, 27974.50, 0.00, 0.00, 0.00
87, 76928.24, 76934.88, 77044.90, 77014.07, 28004.63, 28016.99, 28035.97, 28034.03, 0.02, 0.58, 0.78
88, 76912.55, 76919.13, 77029.05, 76998.31, 28043.48, 28055.84, 28074.82, 28072.74, 0.00, 0.00, 0.00
89, 77000.98, 77007.61, 77117.27, 77086.88, 27975.62, 27988.38, 28007.21, 28005.42, 0.00, 0.00, 0.00
90, 77055.27, 77061.44, 77171.32, 77140.88, 27942.34, 27955.30, 27973.99, 27972.18, 0.00, 0.00, 0.00
91, 76963.63, 76969.73, 77079.90, 77049.05, 28004.59, 28017.60, 28035.86, 28034.50, 0.00, 0.00, 0.00
92, 76902.76, 76909.09, 77019.30, 76988.48, 28049.56, 28062.30, 28080.83, 28079.29, 0.00, 0.00, 0.00
93, 76990.85, 76997.27, 77107.21, 77076.70, 28013.15, 28025.82, 28044.58, 28042.56, 0.00, 0.00, 0.00
94, 77077.17, 77083.41, 77193.38, 77162.87, 27940.30, 27953.34, 27972.02, 27970.10, 0.00, 0.00, 0.00
95, 77003.95, 77010.14, 77120.49, 77089.78, 27968.13, 27981.10, 27999.83, 27998.20, 0.00, 0.00, 0.00
96, 76908.04, 76914.59, 77024.73, 76994.23, 28044.06, 28056.49, 28075.40, 28073.95, 0.00, 0.00, 0.00
97, 76955.24, 76961.99, 77071.59, 77041.03, 28017.78, 28030.14, 28048.87, 28047.44, 0.00, 0.00, 0.00
98, 77028.16, 77034.81, 77144.52, 77114.03, 27956.71, 27969.45, 27987.74, 27986.22, 0.02, 0.57, 0.77
99, 76994.02, 77000.55, 77110.59, 77079.90, 27976.20, 27988.90, 28007.45, 28005.88, 0.00, 0.00, 0.00
100, 76917.89, 76924.40, 77034.75, 77003.68, 28037.76, 28050.52, 28069.19, 28067.53, 0.00, 0.00, 0.00
101, 76953.70, 76960.09, 77070.38, 77039.33, 28013.42, 28026.11, 28044.84, 28043.08, 0.00, 0.00, 0.00
102, 77042.52, 77049.12, 77158.95, 77128.38, 27955.68, 27968.54, 27987.40, 27985.59, 0.00, 0.00, 0.00
103, 77017.63, 77024.17, 77134.17, 77103.63, 27970.82, 27983.69, 28002.38, 28000.86, 0.00, 0.00, 0.00
104, 76916.89, 76923.48, 77033.67, 77002.92, 28031.39, 28044.13, 28062.79, 28061.21, 0.00, 0.00, 0.00
105, 76914.18, 76920.20, 77030.13, 76999.61, 28022.09, 28034.88, 28053.47, 28051.97, 0.00, 0.00, 0.00
106, 77001.45, 77007.55, 77117.65, 77086.88, 27974.91, 27987.87, 28006.40, 28004.88, 0.00, 0.00, 0.00
107, 77010.02, 77016.09, 77126.46, 77095.48, 27992.92, 28005.77, 28024.37, 28022.83, 0.00, 0.00, 0.00
108, 76910.45, 76916.71, 77026.77, 76995.88, 28064.69, 28077.57, 28096.05, 28094.55, 0.02, 0.57, 0.76
109, 76897.27, 76903.37, 77013.89, 76982.84, 28080.32, 28093.21, 28111.97, 28110.29, 0.00, 0.00, 0.00
110, 76996.86, 77003.43, 77113.25, 77082.31, 27995.54, 28008.17, 28027.03, 28025.31, 0.00, 0.00, 0.00
111, 77025.02, 77031.44, 77141.48, 77110.61, 27963.26, 27975.80, 27994.66, 27992.90, 0.00, 0.00, 0.00
112, 76943.11, 76949.48, 77059.94, 77028.83, 28027.48, 28040.11, 28058.68, 28057.43, 0.00, 0.00, 0.00
113, 76898.24, 76904.59, 77014.99, 76984.08, 28070.84, 28083.47, 28102.31, 28100.68, 0.00, 0.00, 0.00
114, 76993.11, 76999.23, 77109.36, 77078.63, 28008.14, 28020.68, 28039.73, 28037.94, 0.00, 0.00, 0.00
115, 77051.67, 77057.99, 77168.03, 77137.68, 27975.42, 27987.71, 28006.98, 28005.10, 0.00, 0.00, 0.00
116, 76955.06, 76961.34, 77071.41, 77040.91, 28023.25, 28036.33, 28054.99, 28053.07, 0.00, 0.00, 0.00
117, 76890.58, 76897.13, 77007.10, 76976.30, 28062.81, 28076.00, 28094.62, 28092.65, 0.00, 0.00, 0.00
118, 76959.02, 76965.57, 77075.48, 77044.76, 27995.96, 28008.43, 28027.70, 28025.55, 0.02, 0.57, 0.77
119, 77045.39, 77051.78, 77161.46, 77131.09, 27943.08, 27955.71, 27974.57, 27972.92, 0.00, 0.00, 0.00
120, 76987.98, 76994.47, 77104.48, 77073.75, 27992.34, 28004.95, 28024.01, 28022.16, 0.00, 0.00, 0.00
121, 76906.27, 76912.38, 77022.73, 76991.99, 28039.35, 28052.11, 28071.00, 28068.96, 0.00, 0.00, 0.00
122, 76961.63, 76968.16, 77077.95, 77047.35, 27998.49, 28011.29, 28029.94, 28028.08, 0.00, 0.00, 0.00
123, 77058.30, 77064.70, 77174.52, 77144.14, 27960.15, 27972.89, 27991.67, 27989.88, 0.00, 0.00, 0.00
124, 77026.92, 77033.12, 77143.40, 77112.71, 27981.63, 27994.20, 28012.84, 28011.41, 0.00, 0.00, 0.00
125, 76928.84, 76935.46, 77045.37, 77014.63, 28036.87, 28049.34, 28067.93, 28066.44, 0.00, 0.00, 0.00
126, 76949.81, 76956.41, 77066.35, 77035.42, 28038.07, 28050.79, 28069.25, 28067.67, 0.00, 0.00, 0.00
127, 77052.45, 77058.84, 77168.57, 77138.05, 27974.46, 27987.24, 28005.86, 28004.25, 0.00, 0.00, 0.00
128, 77017.36, 77023.80, 77133.95, 77103.26, 27982.10, 27994.78, 28013.40, 28011.74, 0.04, 0.57, 0.77
129, 76924.73, 76930.88, 77041.41, 77010.66, 28042.50, 28055.19, 28073.68, 28072.11, 0.00, 0.00, 0.00
130, 76946.10, 76952.38, 77062.53, 77031.35, 28051.44, 28064.42, 28082.96, 28081.37, 0.00, 0.00, 0.00
131, 77032.67, 77039.20, 77149.16, 77118.34, 27993.64, 28006.24, 28024.93, 28023.34, 0.00, 0.00, 0.00
132, 77030.84, 77037.25, 77147.09, 77116.80, 27979.49, 27992.23, 28011.00, 28009.53, 0.00, 0.00, 0.00
133, 76931.30, 76937.95, 77047.82, 77017.16, 28035.52, 28048.60, 28067.29, 28065.72, 0.00, 0.00, 0.00
134, 76916.24, 76922.84, 77032.63, 77002.02, 28063.75, 28077.01, 28095.43, 28094.18, 0.00, 0.00, 0.00
135, 77010.52, 77016.76, 77126.73, 77095.92, 28002.04, 28015.29, 28033.65, 28031.97, 0.00, 0.00, 0.00
136, 77045.21, 77051.71, 77161.64, 77131.09, 27979.13, 27991.89, 28010.60, 28008.54, 0.00, 0.00, 0.00
137, 76943.95, 76950.30, 77060.41, 77029.72, 28035.32, 28047.84, 28066.62, 28064.92, 0.00, 0.00, 0.00
138, 76903.97, 76910.07, 77020.55, 76989.53, 28062.48, 28075.22, 28093.97, 28092.32, 0.00, 0.00, 0.00
139, 76998.56, 77004.98, 77115.10, 77084.30, 27996.70, 28009.64, 28028.35, 28026.36, 0.02, 0.59, 0.77
140, 77064.77, 77071.00, 77181.40, 77150.35, 27957.96, 27970.66, 27989.37, 27987.85, 0.00, 0.00, 0.00
141, 76981.15, 76987.54, 77097.94, 77066.94, 28015.52, 28028.06, 28046.90, 28045.25, 0.00, 0.00, 0.00
142, 76921.36, 76927.64, 77038.05, 77007.32, 28066.48, 28079.09, 28098.09, 28096.12, 0.00, 0.00, 0.00
143, 76988.86, 76995.16, 77105.23, 77074.63, 28022.00, 28034.65, 28053.45, 28051.48, 0.00, 0.00, 0.00
144, 77040.29, 77046.86, 77156.97, 77126.13, 27966.66, 27979.26, 27997.62, 27995.83, 0.00, 0.00, 0.00
145, 76969.41, 76975.70, 77086.05, 77055.24, 28015.25, 28028.01, 28046.54, 28044.91, 0.00, 0.00, 0.00
146, 76883.13, 76889.46, 76999.55, 76968.77, 28092.07, 28104.88, 28123.59, 28121.87, 0.00, 0.00, 0.00
147, 76923.80, 76930.01, 77040.27, 77009.40, 28052.40, 28065.25, 28083.96, 28082.06, 0.00, 0.00, 0.00
148, 77014.70, 77021.18, 77130.84, 77100.73, 27994.35, 28007.41, 28025.69, 28024.19, 0.00, 0.00, 0.00
149, 76973.05, 76979.38, 77089.22, 77058.77, 28004.68, 28017.46, 28035.55, 28034.29, 0.03, 0.60, 0.80
150, 76874.87, 76881.30, 76991.20, 76960.49, 28069.30, 28082.04, 28100.46, 28098.91, 0.00, 0.00, 0.00
151, 76902.16, 76908.41, 77018.50, 76987.63, 28070.84, 28083.45, 28102.09, 28100.32, 0.00, 0.00, 0.00
152, 76996.28, 77002.30, 77112.38, 77081.64, 28010.71, 28023.79, 28042.21, 28040.62, 0.00, 0.00, 0.00
153, 76977.51, 76983.74, 77093.65, 77063.02, 28012.37, 28025.24, 28043.86, 28042.05, 0.00, 0.00, 0.00
154, 76877.26, 76883.61, 76993.94, 76963.20, 28078.91, 28091.85, 28110.58, 28108.88, 0.00, 0.00, 0.00
155, 76882.47, 76889.02, 76999.14, 76968.27, 28079.58, 28092.37, 28111.25, 28109.26, 0.00, 0.00, 0.00
