%OpenBCI Raw EEG Data
%
%Sample Rate = 250.0 Hz
%First Column = SampleIndex
%Other Columns = EEG data in microvolts followed by Accel Data (in G) interleaved with Aux Data
0, 57355.49, 57360.86, 57447.02, 57422.05, 28860.77, 28871.26, 28899.96, 28892.89, -0.04, 0.00, 0.49
1, 56628.34, 56633.82, 56720.48, 56694.39, 29229.35, 29240.62, 29268.67, 29262.14, 0.00, 0.00, 0.00
2, 56698.06, 56703.33, 56789.48, 56763.91, 29160.64, 29171.91, 29200.27, 29193.21, 0.00, 0.00, 0.00
3, 57436.83, 57441.39, 57527.09, 57503.13, 28780.66, 28791.42, 28820.09, 28812.92, 0.00, 0.00, 0.00
4, 57454.82, 57459.80, 57546.31, 57521.83, 28818.15, 28828.68, 28857.08, 28850.47, 0.00, 0.00, 0.00
5, 56737.64, 56743.12, 56829.82, 56804.25, 29190.77, 29201.97, 29230.22, 29223.77, 0.00, 0.00, 0.00
6, 56621.44, 56626.80, 56713.14, 56687.66, 29205.01, 29215.76, 29244.33, 29237.71, 0.00, 0.00, 0.00
7, 57344.09, 57349.12, 57435.13, 57410.70, 28832.63, 28842.76, 28872.02, 28864.88, -0.10, 0.02, 1.01
8, 57533.10, 57538.04, 57624.45, 57599.88, 28769.42, 28779.95, 28808.67, 28801.70, 0.00, 0.00, 0.00
9, 56835.39, 56840.98, 56927.39, 56901.97, 29137.04, 29147.88, 29176.33, 29169.65, 0.00, 0.00, 0.00
10, 56549.53, 56555.23, 56641.26, 56615.80, 29232.59, 29243.86, 29272.04, 29265.50, 0.00, 0.00, 0.00
11, 57211.41, 57216.15, 57302.02, 57277.30, 28871.41, 28882.37, 28910.91, 28903.78, 0.00, 0.00, 0.00
12, 57583.70, 57588.46, 57674.61, 57649.95, 28722.01, 28732.43, 28761.04, 28753.80, 0.00, 0.00, 0.00
13, 56972.25, 56977.79, 57064.65, 57038.74, 29063.64, 29074.46, 29102.82, 29095.64, 0.00, 0.00, 0.00
14, 56530.62, 56536.32, 56623.05, 56596.78, 29258.30, 29269.16, 29297.35, 29290.75, 0.00, 0.00, 0.00
15, 57063.75, 57068.88, 57155.04, 57129.87, 28956.15, 28966.50, 28995.33, 28988.04, 0.00, 0.00, 0.00
16, 57584.51, 57589.31, 57675.61, 57651.34, 28715.62, 28725.59, 28755.00, 28747.05, 0.00, 0.00, 0.00
17, 57106.11, 57111.36, 57198.09, 57172.79, 28988.56, 28999.06, 29027.61, 29020.41, -0.09, 0.02, 0.98
18, 56529.77, 56535.50, 56621.75, 56595.80, 29256.11, 29267.53, 29295.78, 29288.94, 0.00, 0.00, 0.00
19, 56923.68, 56929.09, 57015.07, 56990.09, 29017.79, 29028.37, 29057.38, 29049.98, 0.00, 0.00, 0.00
20, 57553.73, 57558.67, 57644.99, 57620.56, 28715.15, 28725.10, 28754.24, 28746.87, 0.00, 0.00, 0.00
21, 57229.70, 57235.13, 57321.80, 57296.68, 28917.86, 28927.89, 28956.59, 28949.58, 0.00, 0.00, 0.00
22, 56564.91, 56570.59, 56657.38, 56631.50, 29242.81, 29253.43, 29281.99, 29274.99, 0.00, 0.00, 0.00
23, 56800.70, 56805.93, 56891.96, 56866.57, 29088.38, 29099.09, 29127.70, 29120.72, 0.00, 0.00, 0.00
24, 57515.57, 57520.40, 57605.94, 57581.94, 28736.54, 28746.67, 28775.57, 28768.35, 0.00, 0.00, 0.00
25, 57382.65, 57387.79, 57473.93, 57449.37, 28838.13, 28848.46, 28877.42, 28870.05, 0.00, 0.00, 0.00
26, 56670.41, 56676.18, 56763.01, 56737.02, 29190.01, 29200.56, 29229.15, 29222.22, 0.00, 0.00, 0.00
27, 56705.26, 56710.66, 56797.10, 56771.60, 29135.74, 29146.32, 29174.99, 29168.00, -0.09, 0.01, 0.99
28, 57451.07, 57455.89, 57541.97, 57517.74, 28758.36, 28768.77, 28797.56, 28789.85, 0.00, 0.00, 0.00
29, 57466.58, 57471.83, 57557.84, 57533.37, 28802.99, 28813.74, 28842.33, 28834.82, 0.00, 0.00, 0.00
30, 56768.54, 56774.17, 56860.40, 56834.92, 29164.85, 29175.48, 29203.78, 29197.10, 0.00, 0.00, 0.00
31, 56602.95, 56607.98, 56694.37, 56668.55, 29209.73, 29220.46, 29248.73, 29242.00, 0.00, 0.00, 0.00
32, 57290.09, 57294.85, 57380.61, 57356.03, 28840.21, 28850.54, 28879.41, 28872.28, 0.00, 0.00, 0.00
33, 57538.42, 57543.31, 57629.28, 57604.94, 28747.38, 28757.44, 28786.77, 28779.44, 0.00, 0.00, 0.00
34, 56861.34, 56866.59, 56953.16, 56927.57, 29109.19, 29119.63, 29148.33, 29141.76, 0.00, 0.00, 0.00
35, 56552.19, 56557.67, 56643.92, 56618.29, 29239.37, 29250.45, 29278.46, 29271.80, 0.00, 0.00, 0.00
36, 57188.93, 57193.98, 57279.79, 57255.27, 28895.64, 28906.71, 28935.00, 28927.94, 0.00, 0.00, 0.00
37, 57589.36, 57594.07, 57680.30, 57655.63, 28723.35, 28733.93, 28762.43, 28755.32, 0.00, 0.00, 0.00
38, 57002.89, 57008.08, 57095.05, 57069.32, 29048.68, 29059.52, 29087.96, 29081.38, -0.09, 0.01, 1.00
39, 56525.53, 56531.02, 56617.48, 56591.46, 29253.72, 29264.65, 29292.70, 29286.55, 0.00, 0.00, 0.00
40, 57043.53, 57048.49, 57134.77, 57109.73, 28946.13, 28956.88, 28985.32, 28978.54, 0.00, 0.00, 0.00
41, 57596.51, 57601.29, 57687.35, 57663.03, 28690.92, 28701.52, 28730.35, 28722.97, 0.00, 0.00, 0.00
42, 57133.54, 57139.13, 57225.54, 57200.30, 28957.51, 28968.26, 28996.60, 28989.94, 0.00, 0.00, 0.00
43, 56540.25, 56546.38, 56632.70, 56606.82, 29245.16, 29256.11, 29284.38, 29277.68, 0.00, 0.00, 0.00
44, 56916.66, 56922.25, 57007.79, 56982.98, 29018.11, 29028.95, 29057.67, 29050.43, 0.00, 0.00, 0.00
45, 57570.45, 57575.21, 57661.04, 57636.74, 28706.03, 28716.20, 28745.21, 28737.48, 0.00, 0.00, 0.00
46, 57269.55, 57274.69, 57361.23, 57335.84, 28898.50, 28908.90, 28937.57, 28930.29, 0.00, 0.00, 0.00
47, 56584.76, 56590.43, 56677.05, 56650.92, 29234.76, 29245.89, 29273.86, 29267.33, 0.00, 0.00, 0.00
48, 56782.06, 56787.67, 56873.74, 56848.35, 29100.07, 29110.75, 29139.14, 29132.44, -0.07, 0.01, 0.98
49, 57504.55, 57509.67, 57595.46, 57571.14, 28737.17, 28747.45, 28776.33, 28769.00, 0.00, 0.00, 0.00
50, 57402.92, 57407.91, 57494.34, 57469.82, 28833.12, 28843.70, 28872.28, 28865.18, 0.00, 0.00, 0.00
51, 56674.59, 56679.84, 56766.66, 56740.75, 29195.71, 29206.49, 29234.65, 29228.19, 0.00, 0.00, 0.00
52, 56686.64, 56692.20, 56778.30, 56752.38, 29143.30, 29154.03, 29182.15, 29175.64, 0.00, 0.00, 0.00
53, 57421.45, 57426.23, 57512.22, 57487.66, 28771.90, 28782.14, 28811.02, 28803.96, 0.00, 0.00, 0.00
54, 57496.75, 57501.78, 57587.95, 57563.52, 28781.80, 28792.26, 28821.12, 28814.15, 0.00, 0.00, 0.00
55, 56784.49, 56790.17, 56876.80, 56851.10, 29143.05, 29153.74, 29182.46, 29175.53, 0.00, 0.00, 0.00
56, 56616.25, 56621.97, 56708.07, 56682.50, 29188.47, 29198.98, 29227.54, 29220.52, 0.00, 0.00, 0.00
57, 57315.30, 57320.49, 57405.96, 57381.80, 28818.08, 28828.63, 28856.86, 28849.64, 0.00, 0.00, 0.00
58, 57591.95, 57596.84, 57682.99, 57658.51, 28720.67, 28731.20, 28759.85, 28752.46, -0.09, 0.01, 0.99
59, 56893.61, 56899.00, 56985.61, 56960.11, 29100.88, 29111.89, 29140.33, 29133.38, 0.00, 0.00, 0.00
60, 56570.50, 56575.82, 56662.21, 56636.75, 29223.29, 29234.25, 29262.54, 29255.66, 0.00, 0.00, 0.00
61, 57175.38, 57180.45, 57266.33, 57241.77, 28884.44, 28895.02, 28923.87, 28916.27, 0.00, 0.00, 0.00
62, 57575.63, 57580.91, 57666.79, 57642.60, 28713.86, 28723.89, 28752.90, 28745.42, 0.00, 0.00, 0.00
63, 57012.79, 57018.58, 57104.84, 57079.49, 29021.10, 29031.72, 29060.13, 29053.27, 0.00, 0.00, 0.00
64, 56525.17, 56530.60, 56616.99, 56591.35, 29231.97, 29242.74, 29270.97, 29264.40, 0.00, 0.00, 0.00
65, 57029.45, 57034.41, 57120.42, 57095.94, 28948.59, 28958.92, 28987.57, 28980.64, 0.00, 0.00, 0.00
66, 57590.61, 57595.64, 57681.42, 57657.57, 28689.92, 28700.13, 28729.34, 28721.68, 0.00, 0.00, 0.00
67, 57166.13, 57171.38, 57257.77, 57232.82, 28951.28, 28962.09, 28990.48, 28983.60, 0.00, 0.00, 0.00
68, 56561.16, 56566.59, 56653.24, 56627.38, 29236.71, 29247.79, 29275.67, 29269.45, -0.10, 0.01, 1.00
69, 56900.12, 56905.59, 56991.67, 56966.30, 29027.00, 29037.87, 29066.25, 29059.37, 0.00, 0.00, 0.00
70, 57563.16, 57567.96, 57654.11, 57629.50, 28711.40, 28721.74, 28750.76, 28743.36, 0.00, 0.00, 0.00
71, 57300.59, 57305.85, 57392.17, 57366.78, 28890.01, 28900.42, 28929.17, 28922.02, 0.00, 0.00, 0.00
72, 56615.58, 56621.41, 56707.91, 56681.63, 29227.59, 29238.58, 29266.63, 29259.86, 0.00, 0.00, 0.00
73, 56772.38, 56777.88, 56863.80, 56838.54, 29095.82, 29106.62, 29135.12, 29128.23, 0.00, 0.00, 0.00
74, 57502.48, 57507.24, 57593.38, 57568.93, 28721.97, 28732.18, 28761.02, 28753.64, 0.00, 0.00, 0.00
75, 57418.57, 57423.62, 57510.05, 57485.00, 28797.63, 28808.25, 28837.01, 28829.57, 0.00, 0.00, 0.00
76, 56693.66, 56699.42, 56785.70, 56760.04, 29174.70, 29185.52, 29213.88, 29207.02, 0.00, 0.00, 0.00
77, 56663.97, 56669.58, 56755.44, 56730.13, 29146.61, 29157.38, 29185.83, 29179.22, 0.00, 0.00, 0.00
78, 57389.87, 57394.96, 57480.37, 57456.34, 28766.34, 28776.51, 28805.32, 28798.05, -0.10, 0.01, 0.98
79, 57506.70, 57511.64, 57597.83, 57573.42, 28748.41, 28758.16, 28786.74, 28780.20, 0.00, 0.00, 0.00
80, 56795.18, 56800.36, 56887.16, 56861.34, 29123.09, 29133.44, 29162.19, 29155.23, 0.00, 0.00, 0.00
81, 56592.22, 56597.61, 56683.95, 56658.43, 29186.04, 29196.94, 29225.44, 29218.56, 0.00, 0.00, 0.00
82, 57293.18, 57298.23, 57383.92, 57359.65, 28823.65, 28834.26, 28862.63, 28855.88, 0.00, 0.00, 0.00
83, 57585.49, 57590.16, 57676.21, 57651.88, 28713.36, 28723.80, 28752.46, 28745.10, 0.00, 0.00, 0.00
84, 56922.49, 56927.45, 57014.45, 56988.61, 29065.63, 29076.49, 29104.94, 29098.10, 0.00, 0.00, 0.00
85, 56552.59, 56558.47, 56644.95, 56618.66, 29216.37, 29227.14, 29255.39, 29248.84, 0.00, 0.00, 0.00
86, 57158.73, 57164.05, 57249.77, 57225.20, 28880.60, 28891.06, 28919.49, 28912.56, 0.00, 0.00, 0.00
87, 57616.11, 57620.87, 57706.86, 57682.56, 28686.50, 28696.91, 28725.48, 28718.48, 0.00, 0.00, 0.00
88, 57078.73, 57083.96, 57170.62, 57145.45, 28994.91, 29005.52, 29034.00, 29027.45, 0.00, 0.00, 0.00
89, 56527.31, 56532.57, 56619.34, 56593.56, 29245.24, 29256.51, 29284.54, 29277.95, -0.10, 0.01, 0.98
90, 57017.13, 57021.96, 57107.95, 57082.96, 28957.02, 28967.75, 28996.45, 28989.36, 0.00, 0.00, 0.00
91, 57600.89, 57605.52, 57691.62, 57667.30, 28692.11, 28702.34, 28731.09, 28723.98, 0.00, 0.00, 0.00
92, 57168.86, 57174.48, 57260.83, 57235.73, 28950.67, 28961.00, 28989.61, 28982.93, 0.00, 0.00, 0.00
93, 56544.39, 56550.07, 56636.84, 56610.86, 29241.74, 29252.71, 29281.03, 29274.46, 0.00, 0.00, 0.00
94, 56861.09, 56866.37, 56952.51, 56927.34, 29035.56, 29046.54, 29075.19, 29068.44, 0.00, 0.00, 0.00
95, 57549.19, 57554.15, 57639.83, 57615.42, 28703.17, 28713.47, 28742.44, 28735.38, 0.00, 0.00, 0.00
96, 57321.89, 57327.48, 57413.65, 57388.62, 28865.40, 28875.97, 28904.45, 28897.38, 0.00, 0.00, 0.00
97, 56625.68, 56630.96, 56717.71, 56691.93, 29207.43, 29218.18, 29246.52, 29239.77, 0.00, 0.00, 0.00
98, 56752.11, 56757.25, 56843.50, 56818.24, 29105.28, 29116.03, 29144.42, 29137.93, 0.00, 0.00, 0.00
99, 57488.98, 57493.85, 57580.04, 57555.52, 28739.94, 28750.40, 28779.14, 28772.01, -0.10, 0.01, 0.99
100, 57451.20, 57456.32, 57542.95, 57518.08, 28805.54, 28816.09, 28844.52, 28837.66, 0.00, 0.00, 0.00
101, 56714.55, 56719.85, 56806.69, 56780.38, 29169.12, 29179.84, 29207.54, 29201.41, 0.00, 0.00, 0.00
102, 56650.02, 56655.55, 56741.60, 56715.85, 29158.14, 29168.78, 29196.88, 29190.24, 0.00, 0.00, 0.00
103, 57376.46, 57381.48, 57467.47, 57442.82, 28773.18, 28783.32, 28812.20, 28804.71, 0.00, 0.00, 0.00
104, 57524.89, 57529.75, 57616.18, 57591.21, 28746.60, 28756.88, 28785.49, 28777.96, 0.00, 0.00, 0.00
105, 56813.48, 56818.85, 56905.62, 56880.02, 29122.60, 29133.55, 29162.01, 29154.97, 0.00, 0.00, 0.00
106, 56578.72, 56584.51, 56670.68, 56645.27, 29201.75, 29212.90, 29241.36, 29234.47, 0.00, 0.00, 0.00
107, 57260.96, 57265.97, 57351.64, 57327.33, 28835.78, 28846.24, 28875.08, 28867.59, 0.00, 0.00, 0.00
108, 57589.27, 57594.05, 57680.02, 57655.92, 28714.57, 28724.76, 28753.64, 28746.26, 0.00, 0.00, 0.00
109, 56956.91, 56962.37, 57048.98, 57023.52, 29064.93, 29075.60, 29103.78, 29097.16, -0.10, 0.01, 0.99
110, 56550.94, 56556.77, 56642.71, 56617.17, 29234.92, 29245.94, 29274.06, 29267.73, 0.00, 0.00, 0.00
111, 57128.55, 57133.52, 57219.35, 57195.16, 28910.62, 28921.23, 28949.96, 28942.69, 0.00, 0.00, 0.00
112, 57606.93, 57612.00, 57697.67, 57673.98, 28704.69, 28714.97, 28743.72, 28736.70, 0.00, 0.00, 0.00
113, 57079.76, 57085.32, 57171.29, 57146.50, 29020.97, 29031.65, 29059.84, 29053.45, 0.00, 0.00, 0.00
114, 56541.66, 56547.18, 56633.37, 56607.76, 29253.27, 29264.11, 29292.18, 29285.77, 0.00, 0.00, 0.00
115, 57002.40, 57007.70, 57093.80, 57068.50, 28964.48, 28974.79, 29003.47, 28996.38, 0.00, 0.00, 0.00
116, 57620.25, 57624.76, 57711.02, 57686.41, 28684.51, 28694.95, 28723.98, 28716.13, 0.00, 0.00, 0.00
117, 57249.92, 57254.75, 57341.52, 57316.40, 28918.55, 28929.39, 28957.58, 28950.47, 0.00, 0.00, 0.00
118, 56614.24, 56619.49, 56706.17, 56680.31, 29216.34, 29227.34, 29255.41, 29248.93, 0.00, 0.00, 0.00
119, 56855.71, 56861.11, 56947.08, 56921.44, 29037.06, 29048.17, 29076.78, 29069.56, -0.11, 0.01, 0.99
120, 57563.81, 57568.48, 57654.56, 57630.15, 28685.76, 28696.20, 28724.99, 28717.54, 0.00, 0.00, 0.00
121, 57367.16, 57372.30, 57459.05, 57434.08, 28823.31, 28833.82, 28862.38, 28854.94, 0.00, 0.00, 0.00
122, 56625.71, 56631.38, 56717.84, 56692.29, 29169.99, 29180.83, 29209.06, 29202.38, 0.00, 0.00, 0.00
123, 56726.18, 56731.56, 56817.53, 56792.63, 29064.71, 29075.46, 29103.83, 29097.12, 0.00, 0.00, 0.00
124, 57473.26, 57478.11, 57564.23, 57540.34, 28700.42, 28710.48, 28739.65, 28732.16, 0.00, 0.00, 0.00
125, 57473.04, 57478.25, 57564.50, 57539.94, 28749.48, 28759.59, 28788.58, 28781.31, 0.00, 0.00, 0.00
126, 56751.30, 56757.13, 56843.57, 56817.64, 29121.35, 29132.39, 29160.69, 29153.76, 0.00, 0.00, 0.00
127, 56664.62, 56670.23, 56756.31, 56730.83, 29112.83, 29123.74, 29152.22, 29145.31, 0.00, 0.00, 0.00
128, 57386.16, 57390.98, 57477.04, 57452.74, 28720.78, 28731.18, 28759.74, 28752.61, 0.00, 0.00, 0.00
129, 57558.96, 57563.74, 57649.86, 57625.48, 28663.90, 28674.72, 28703.06, 28695.95, 0.00, 0.00, 0.00
130, 56860.51, 56865.81, 56952.18, 56926.56, 29036.10, 29046.85, 29075.10, 29068.31, -0.11, 0.01, 0.98
131, 56585.65, 56591.42, 56677.63, 56651.72, 29123.25, 29133.98, 29162.12, 29155.79, 0.00, 0.00, 0.00
132, 57244.22, 57249.63, 57335.42, 57310.74, 28768.88, 28779.26, 28807.98, 28801.05, 0.00, 0.00, 0.00
133, 57599.80, 57604.94, 57690.86, 57666.40, 28639.69, 28650.04, 28678.76, 28671.45, 0.00, 0.00, 0.00
134, 56983.98, 56989.26, 57075.69, 57050.28, 28978.77, 28989.45, 29017.84, 29010.95, 0.00, 0.00, 0.00
135, 56560.59, 56566.18, 56652.57, 56626.64, 29165.85, 29176.78, 29204.79, 29198.26, 0.00, 0.00, 0.00
136, 57124.04, 57129.36, 57215.21, 57190.36, 28848.72, 28859.14, 28887.91, 28880.64, 0.00, 0.00, 0.00
137, 57628.92, 57633.75, 57719.78, 57695.35, 28624.11, 28634.42, 28663.27, 28655.81, 0.00, 0.00, 0.00
138, 57120.06, 57125.04, 57211.90, 57186.55, 28918.53, 28929.33, 28957.38, 28950.52, 0.00, 0.00, 0.00
139, 56559.66, 56565.29, 56651.93, 56626.04, 29171.84, 29182.84, 29210.58, 29204.27, 0.00, 0.00, 0.00
140, 56978.35, 56983.78, 57069.79, 57044.87, 28925.30, 28936.03, 28964.37, 28957.31, -0.12, 0.01, 0.99
141, 57600.06, 57604.98, 57690.75, 57666.43, 28627.64, 28638.26, 28667.07, 28659.50, 0.00, 0.00, 0.00
142, 57258.11, 57263.18, 57349.61, 57324.40, 28842.00, 28853.15, 28881.54, 28874.25, 0.00, 0.00, 0.00
143, 56611.74, 56616.95, 56703.76, 56677.94, 29156.78, 29167.48, 29195.67, 29189.01, 0.00, 0.00, 0.00
144, 56856.76, 56861.70, 56947.71, 56922.43, 28996.98, 29007.69, 29035.88, 29029.39, 0.00, 0.00, 0.00
145, 57560.12, 57564.68, 57650.85, 57626.33, 28652.88, 28663.32, 28692.06, 28684.78, 0.00, 0.00, 0.00
146, 57405.67, 57410.48, 57497.11, 57471.96, 28780.42, 28791.26, 28819.24, 28812.69, 0.00, 0.00, 0.00
147, 56695.62, 56701.14, 56787.93, 56761.80, 29134.27, 29145.47, 29173.34, 29166.99, 0.00, 0.00, 0.00
148, 56769.70, 56774.97, 56861.29, 56835.66, 29058.50, 29069.25, 29097.52, 29090.71, 0.00, 0.00, 0.00
149, 57480.53, 57485.09, 57571.05, 57546.84, 28704.22, 28714.86, 28743.20, 28736.05, 0.00, 0.00, 0.00
150, 57523.02, 57527.55, 57614.14, 57589.67, 28730.46, 28740.95, 28769.38, 28762.07, -0.12, 0.01, 0.99
151, 56789.77, 56795.18, 56881.79, 56856.09, 29099.58, 29110.35, 29138.69, 29131.88, 0.00, 0.00, 0.00
152, 56642.00, 56647.63, 56733.48, 56707.91, 29127.94, 29138.81, 29166.97, 29160.04, 0.00, 0.00, 0.00
153, 57357.21, 57362.33, 57448.05, 57423.62, 28749.17, 28759.63, 28788.26, 28781.13, 0.00, 0.00, 0.00
154, 57566.43, 57571.34, 57657.71, 57633.25, 28680.66, 28691.06, 28719.76, 28712.63, 0.00, 0.00, 0.00
155, 56878.01, 56883.38, 56969.88, 56944.46, 29045.93, 29056.78, 29085.14, 29078.26, 0.00, 0.00, 0.00
156, 56579.64, 56584.91, 56671.44, 56645.60, 29163.68, 29174.57, 29202.73, 29196.38, 0.00, 0.00, 0.00
157, 57234.10, 57238.99, 57324.69, 57300.21, 28806.84, 28817.52, 28846.27, 28838.98, 0.00, 0.00, 0.00
158, 57618.62, 57623.64, 57709.54, 57685.11, 28649.32, 28659.72, 28688.11, 28680.84, 0.00, 0.00, 0.00
159, 57021.38, 57027.12, 57113.33, 57087.88, 28976.60, 28986.99, 29015.25, 29008.43, 0.00, 0.00, 0.00
160, 56570.09, 56575.91, 56662.27, 56636.57, 29179.17, 29189.97, 29218.22, 29211.56, -0.11, 0.01, 0.98
161, 57103.09, 57108.88, 57194.54, 57169.97, 28874.50, 28885.18, 28913.68, 28906.30, 0.00, 0.00, 0.00
162, 57624.89, 57630.24, 57716.36, 57691.95, 28635.51, 28645.86, 28674.40, 28667.14, 0.00, 0.00, 0.00
163, 57151.78, 57157.01, 57244.11, 57218.56, 28902.37, 28912.96, 28940.99, 28934.27, 0.00, 0.00, 0.00
164, 56578.10, 56583.53, 56670.34, 56644.32, 29168.78, 29179.91, 29207.94, 29201.23, 0.00, 0.00, 0.00
165, 56962.28, 56967.04, 57053.27, 57028.29, 28946.87, 28957.51, 28986.03, 28979.01, 0.00, 0.00, 0.00
166, 57600.36, 57604.89, 57691.19, 57666.74, 28642.02, 28652.57, 28681.33, 28673.89, 0.00, 0.00, 0.00
167, 57288.05, 57293.31, 57380.12, 57354.71, 28835.74, 28846.54, 28875.05, 28867.81, 0.00, 0.00, 0.00
168, 56621.04, 56626.55, 56713.44, 56687.29, 29163.97, 29174.79, 29202.98, 29196.50, 0.00, 0.00, 0.00
169, 56841.07, 56846.39, 56932.35, 56907.29, 29014.82, 29025.62, 29053.98, 29047.23, 0.00, 0.00, 0.00
170, 57542.30, 57547.31, 57633.03, 57609.00, 28669.75, 28679.95, 28708.96, 28701.43, -0.12, 0.00, 0.99
171, 57399.97, 57405.29, 57491.55, 57466.94, 28777.31, 28787.73, 28816.45, 28809.12, 0.00, 0.00, 0.00
172, 56686.46, 56691.78, 56778.55, 56752.91, 29136.79, 29147.77, 29176.00, 29169.16, 0.00, 0.00, 0.00
173, 56720.14, 56725.55, 56811.92, 56786.30, 29078.77, 29089.48, 29117.75, 29110.82, 0.00, 0.00, 0.00
174, 57447.22, 57452.68, 57538.37, 57514.12, 28701.11, 28711.69, 28740.41, 28732.90, 0.00, 0.00, 0.00
175, 57509.92, 57515.13, 57601.38, 57576.73, 28715.13, 28725.30, 28753.86, 28746.60, 0.00, 0.00, 0.00
176, 56800.32, 56805.91, 56892.74, 56866.52, 29088.13, 29098.44, 29126.71, 29120.05, 0.00, 0.00, 0.00
177, 56648.04, 56653.55, 56739.84, 56713.95, 29119.20, 29129.87, 29158.14, 29151.39, 0.00, 0.00, 0.00
178, 57353.19, 57358.33, 57444.27, 57419.53, 28744.92, 28755.47, 28783.97, 28776.93, 0.00, 0.00, 0.00
179, 57571.57, 57576.62, 57662.92, 57638.17, 28691.44, 28702.21, 28730.57, 28723.71, 0.00, 0.00, 0.00
180, 56912.37, 56917.78, 57004.39, 56978.93, 29043.86, 29054.94, 29083.02, 29076.36, 0.00, 0.00, 0.00
181, 56584.29, 56589.56, 56676.04, 56650.20, 29169.09, 29180.07, 29208.28, 29201.39, -0.12, 0.01, 0.99
182, 57185.80, 57190.91, 57276.41, 57252.00, 28836.72, 28847.18, 28875.75, 28868.75, 0.00, 0.00, 0.00
183, 57603.08, 57607.86, 57693.98, 57669.69, 28667.32, 28677.49, 28706.08, 28698.83, 0.00, 0.00, 0.00
184, 57030.54, 57035.68, 57122.77, 57097.29, 28994.37, 29004.94, 29033.31, 29026.15, 0.00, 0.00, 0.00
185, 56548.13, 56553.67, 56640.50, 56614.64, 29208.92, 29219.79, 29248.11, 29241.29, 0.00, 0.00, 0.00
186, 57064.96, 57070.04, 57156.07, 57131.30, 28916.14, 28927.02, 28955.41, 28948.28, 0.00, 0.00, 0.00
187, 57620.54, 57625.14, 57711.22, 57687.13, 28658.53, 28668.99, 28697.65, 28690.47, 0.00, 0.00, 0.00
188, 57169.28, 57174.78, 57261.28, 57236.13, 28917.90, 28928.41, 28956.84, 28949.80, 0.00, 0.00, 0.00
189, 56570.27, 56575.79, 56662.21, 56636.37, 29197.43, 29208.39, 29236.53, 29229.89, 0.00, 0.00, 0.00
190, 56927.39, 56932.95, 57018.49, 56993.55, 28975.66, 28986.19, 29014.60, 29007.45, 0.00, 0.00, 0.00
191, 57587.05, 57592.17, 57677.82, 57653.98, 28663.70, 28674.02, 28702.81, 28695.26, -0.10, 0.01, 0.97
192, 57299.28, 57304.48, 57391.03, 57366.13, 28846.02, 28856.30, 28884.78, 28877.69, 0.00, 0.00, 0.00
193, 56622.06, 56627.47, 56714.18, 56688.07, 29170.50, 29181.54, 29209.55, 29202.89, 0.00, 0.00, 0.00
194, 56808.59, 56813.73, 56899.63, 56874.57, 29033.02, 29043.54, 29072.09, 29064.98, 0.00, 0.00, 0.00
195, 57524.43, 57529.36, 57614.93, 57591.05, 28677.20, 28687.08, 28716.27, 28708.45, 0.00, 0.00, 0.00
196, 57432.63, 57437.61, 57524.22, 57499.50, 28766.74, 28777.04, 28805.65, 28798.28, 0.00, 0.00, 0.00
197, 56707.25, 56712.83, 56799.49, 56773.61, 29131.99, 29142.94, 29171.39, 29164.40, 0.00, 0.00, 0.00
198, 56684.94, 56690.68, 56776.80, 56751.17, 29094.91, 29105.90, 29134.25, 29127.29, 0.00, 0.00, 0.00
199, 57415.86, 57421.27, 57506.92, 57482.76, 28724.20, 28734.87, 28763.43, 28756.19, 0.00, 0.00, 0.00
200, 57512.96, 57517.88, 57604.22, 57579.72, 28721.90, 28732.43, 28760.79, 28753.60, 0.00, 0.00, 0.00
201, 56794.42, 56799.87, 56886.66, 56861.18, 29104.94, 29115.81, 29143.86, 29137.44, -0.11, 0.01, 0.98
202, 56607.94, 56613.46, 56699.87, 56674.21, 29156.42, 29167.30, 29195.27, 29189.12, 0.00, 0.00, 0.00
203, 57303.10, 57308.17, 57394.14, 57369.46, 28786.90, 28797.23, 28825.79, 28818.91, 0.00, 0.00, 0.00
204, 57565.17, 57569.98, 57656.17, 57631.76, 28684.60, 28694.83, 28723.85, 28716.43, 0.00, 0.00, 0.00
205, 56910.63, 56915.74, 57002.49, 56976.79, 29043.88, 29054.76, 29082.90, 29076.33, 0.00, 0.00, 0.00
206, 56565.87, 56571.23, 56657.51, 56631.63, 29191.11, 29201.95, 29229.82, 29223.36, 0.00, 0.00, 0.00
207, 57186.15, 57191.50, 57277.37, 57252.70, 28851.34, 28861.71, 28890.28, 28883.30, 0.00, 0.00, 0.00
208, 57630.30, 57635.22, 57721.59, 57697.36, 28653.08, 28663.36, 28692.11, 28684.91, 0.00, 0.00, 0.00
209, 57037.70, 57042.81, 57129.52, 57104.44, 28984.87, 28995.71, 29024.25, 29017.46, 0.00, 0.00, 0.00
210, 56537.82, 56543.41, 56630.09, 56604.18, 29208.54, 29219.27, 29247.66, 29241.04, 0.00, 0.00, 0.00
211, 57030.54, 57035.64, 57121.96, 57096.81, 28923.09, 28933.68, 28962.34, 28955.21, -0.11, 0.01, 0.99
212, 57588.04, 57592.44, 57678.63, 57654.49, 28662.94, 28673.17, 28701.72, 28694.48, 0.00, 0.00, 0.00
213, 57159.27, 57164.25, 57250.80, 57225.47, 28919.00, 28929.48, 28957.82, 28951.03, 0.00, 0.00, 0.00
214, 56538.47, 56543.88, 56630.78, 56604.54, 29205.15, 29215.92, 29244.20, 29237.73, 0.00, 0.00, 0.00
215, 56871.46, 56876.67, 56962.93, 56937.78, 28994.10, 29004.99, 29033.26, 29026.42, 0.00, 0.00, 0.00
216, 57560.72, 57565.46, 57651.81, 57627.36, 28655.99, 28666.78, 28695.08, 28687.86, 0.00, 0.00, 0.00
217, 57314.23, 57319.01, 57405.85, 57380.50, 28819.22, 28830.02, 28857.91, 28851.09, 0.00, 0.00, 0.00
218, 56599.31, 56604.65, 56691.58, 56665.67, 29173.90, 29185.14, 29212.92, 29206.38, 0.00, 0.00, 0.00
219, 56737.69, 56743.43, 56829.20, 56803.85, 29057.96, 29068.71, 29097.08, 29090.32, 0.00, 0.00, 0.00
220, 57487.25, 57491.99, 57577.89, 57553.26, 28685.60, 28695.84, 28724.54, 28717.27, 0.00, 0.00, 0.00
221, 57436.36, 57441.61, 57527.91, 57503.10, 28764.15, 28774.61, 28802.99, 28795.71, 0.00, 0.00, 0.00
222, 56684.47, 56690.53, 56776.51, 56751.03, 29141.55, 29152.20, 29180.38, 29173.65, -0.11, 0.00, 0.99
223, 56638.63, 56644.26, 56730.00, 56704.83, 29119.47, 29130.18, 29158.50, 29151.86, 0.00, 0.00, 0.00
224, 57391.03, 57395.93, 57481.51, 57457.57, 28732.81, 28742.98, 28771.86, 28764.79, 0.00, 0.00, 0.00
225, 57522.75, 57527.91, 57613.74, 57589.78, 28710.81, 28721.34, 28750.18, 28742.87, 0.00, 0.00, 0.00
226, 56799.80, 56805.13, 56891.94, 56866.50, 29098.46, 29109.19, 29137.58, 29130.83, 0.00, 0.00, 0.00
227, 56569.11, 56574.61, 56661.09, 56635.47, 29174.32, 29185.16, 29213.48, 29207.04, 0.00, 0.00, 0.00
228, 57269.26, 57274.36, 57360.12, 57335.51, 28796.94, 28807.33, 28835.83, 28828.77, 0.00, 0.00, 0.00
229, 57594.48, 57598.95, 57685.11, 57660.79, 28669.89, 28680.44, 28708.85, 28701.79, 0.00, 0.00, 0.00
230, 56921.46, 56926.58, 57013.00, 56987.85, 29032.54, 29043.61, 29072.04, 29065.22, 0.00, 0.00, 0.00
231, 56515.04, 56520.59, 56606.93, 56581.23, 29205.95, 29217.04, 29245.45, 29238.85, 0.00, 0.00, 0.00
232, 57128.22, 57133.38, 57219.35, 57194.38, 28861.98, 28872.60, 28900.89, 28894.01, -0.11, 0.00, 0.99
233, 57614.59, 57619.71, 57705.52, 57681.29, 28639.91, 28650.35, 28679.16, 28671.65, 0.00, 0.00, 0.00
234, 57058.46, 57063.75, 57150.30, 57125.09, 28962.92, 28973.80, 29001.90, 28994.88, 0.00, 0.00, 0.00
235, 56506.17, 56511.98, 56598.44, 56572.53, 29204.79, 29215.58, 29244.02, 29237.29, 0.00, 0.00, 0.00
236, 56990.78, 56995.63, 57082.22, 57057.09, 28920.16, 28930.26, 28959.19, 28952.30, 0.00, 0.00, 0.00
237, 57620.23, 57624.49, 57711.26, 57686.86, 28635.47, 28645.64, 28674.45, 28667.41, 0.00, 0.00, 0.00
238, 57211.21, 57216.29, 57302.74, 57277.86, 28884.94, 28895.33, 28923.85, 28917.10, 0.00, 0.00, 0.00
239, 56524.12, 56529.59, 56616.32, 56590.17, 29216.10, 29226.87, 29254.81, 29248.33, 0.00, 0.00, 0.00
240, 56836.08, 56841.36, 56927.39, 56902.06, 29016.32, 29026.94, 29055.26, 29048.42, 0.00, 0.00, 0.00
241, 57577.55, 57582.59, 57668.46, 57644.45, 28656.75, 28667.25, 28696.00, 28688.66, 0.00, 0.00, 0.00
242, 57335.55, 57340.67, 57427.26, 57402.47, 28827.94, 28838.51, 28867.03, 28860.08, -0.12, 0.01, 0.99
243, 56594.79, 56600.67, 56687.13, 56661.20, 29190.77, 29202.06, 29229.93, 29223.79, 0.00, 0.00, 0.00
244, 56726.07, 56731.59, 56817.60, 56791.98, 29077.34, 29088.09, 29116.23, 29109.86, 0.00, 0.00, 0.00
245, 57496.35, 57501.52, 57587.17, 57563.12, 28688.37, 28699.01, 28727.49, 28720.27, 0.00, 0.00, 0.00
246, 57464.75, 57469.82, 57556.30, 57531.78, 28743.87, 28754.38, 28783.08, 28775.59, 0.00, 0.00, 0.00
247, 56698.98, 56704.77, 56791.38, 56765.45, 29136.24, 29147.12, 29175.26, 29168.67, 0.00, 0.00, 0.00
248, 56616.39, 56621.66, 56707.74, 56682.26, 29131.16, 29142.23, 29170.48, 29163.64, 0.00, 0.00, 0.00
249, 57377.77, 57382.38, 57468.21, 57443.60, 28733.23, 28743.76, 28772.44, 28765.33, 0.00, 0.00, 0.00
250, 57550.69, 57555.47, 57642.11, 57617.07, 28687.44, 28697.96, 28726.57, 28719.35, 0.00, 0.00, 0.00
251, 56820.05, 56825.48, 56912.08, 56886.39, 29079.30, 29090.64, 29118.42, 29111.69, 0.00, 0.00, 0.00
252, 56553.24, 56558.45, 56645.02, 56619.05, 29178.88, 29190.21, 29218.24, 29211.58, -0.11, 0.01, 0.98
253, 57252.38, 57257.34, 57343.46, 57318.79, 28799.37, 28809.72, 28838.31, 28831.36, 0.00, 0.00, 0.00
254, 57618.48, 57623.53, 57709.39, 57685.11, 28653.71, 28663.72, 28692.44, 28685.42, 0.00, 0.00, 0.00
255, 56960.27, 56965.63, 57052.18, 57026.74, 29015.45, 29026.38, 29054.52, 29047.68, 0.00, 0.00, 0.00
0, 56516.03, 56521.75, 56608.12, 56582.01, 29202.24, 29213.42, 29241.58, 29234.96, 0.00, 0.00, 0.00
1, 57111.99, 57117.27, 57203.14, 57178.00, 28870.79, 28881.74, 28910.21, 28903.06, 0.00, 0.00, 0.00
2, 57636.63, 57641.44, 57727.45, 57702.99, 28636.18, 28646.29, 28675.07, 28667.63, 0.00, 0.00, 0.00
3, 57107.72, 57112.93, 57199.50, 57174.06, 28944.97, 28955.34, 28983.69, 28977.11, 0.00, 0.00, 0.00
4, 56527.49, 56533.50, 56619.85, 56593.95, 29213.13, 29224.35, 29252.29, 29246.14, 0.00, 0.00, 0.00
5, 56971.36, 56977.03, 57062.97, 57037.49, 28949.89, 28960.42, 28989.12, 28982.25, 0.00, 0.00, 0.00
6, 57617.43, 57622.48, 57708.38, 57683.77, 28646.20, 28655.92, 28685.18, 28677.78, -0.12, 0.01, 0.99
7, 57247.58, 57252.76, 57339.29, 57313.85, 28867.75, 28878.21, 28906.86, 28899.82, 0.00, 0.00, 0.00
8, 56565.02, 56570.50, 56657.27, 56631.12, 29199.71, 29210.69, 29238.96, 29232.08, 0.00, 0.00, 0.00
9, 56843.64, 56849.22, 56935.14, 56910.11, 29020.01, 29030.85, 29059.35, 29052.51, 0.00, 0.00, 0.00
10, 57588.13, 57592.93, 57678.68, 57654.69, 28652.50, 28662.87, 28691.55, 28684.35, 0.00, 0.00, 0.00
11, 57400.69, 57405.56, 57492.11, 57467.16, 28785.38, 28795.86, 28824.23, 28817.34, 0.00, 0.00, 0.00
12, 56646.27, 56651.54, 56738.31, 56712.27, 29158.47, 29169.67, 29197.75, 29190.95, 0.00, 0.00, 0.00
13, 56709.37, 56714.75, 56800.81, 56775.38, 29081.99, 29092.76, 29121.44, 29114.44, 0.00, 0.00, 0.00
14, 57475.96, 57480.77, 57567.07, 57542.73, 28690.94, 28701.09, 28730.10, 28722.62, 0.00, 0.00, 0.00
15, 57513.16, 57517.96, 57604.51, 57579.79, 28721.07, 28731.60, 28760.01, 28752.90, 0.00, 0.00, 0.00
16, 56729.87, 56735.57, 56822.13, 56796.41, 29127.36, 29138.31, 29166.41, 29159.55, 0.00, 0.00, 0.00
17, 56600.74, 56606.26, 56692.71, 56666.90, 29145.91, 29156.82, 29185.03, 29178.17, -0.12, 0.01, 0.99
18, 57365.08, 57369.97, 57455.85, 57431.53, 28747.45, 28757.71, 28786.61, 28779.39, 0.00, 0.00, 0.00
19, 57578.47, 57583.32, 57669.53, 57645.23, 28667.09, 28676.86, 28705.72, 28698.32, 0.00, 0.00, 0.00
20, 56854.88, 56860.33, 56946.92, 56921.53, 29042.80, 29053.31, 29081.59, 29074.72, 0.00, 0.00, 0.00
21, 56552.66, 56558.38, 56644.71, 56618.82, 29160.58, 29171.33, 29199.42, 29192.79, 0.00, 0.00, 0.00
22, 57238.75, 57243.62, 57329.65, 57305.29, 28791.19, 28801.43, 28829.81, 28822.98, 0.00, 0.00, 0.00
23, 57631.49, 57636.12, 57722.15, 57697.79, 28634.39, 28644.56, 28673.02, 28665.84, 0.00, 0.00, 0.00
24, 56996.93, 57002.02, 57088.75, 57063.24, 28991.60, 29002.37, 29030.51, 29023.70, 0.00, 0.00, 0.00
25, 56536.10, 56541.69, 56628.03, 56602.28, 29195.60, 29206.49, 29234.74, 29228.17, 0.00, 0.00, 0.00
26, 57104.86, 57109.42, 57195.74, 57170.95, 28868.08, 28878.63, 28907.09, 28900.04, 0.00, 0.00, 0.00
27, 57652.61, 57657.13, 57743.47, 57719.20, 28624.69, 28635.13, 28663.56, 28656.30, -0.11, 0.01, 0.97
28, 57151.82, 57156.79, 57243.87, 57218.72, 28917.66, 28928.14, 28956.33, 28949.62, 0.00, 0.00, 0.00
29, 56548.23, 56553.80, 56640.79, 56614.55, 29202.17, 29213.17, 29241.24, 29234.49, 0.00, 0.00, 0.00
30, 56953.11, 56958.43, 57044.46, 57019.41, 28955.77, 28966.38, 28994.66, 28987.44, 0.00, 0.00, 0.00
31, 57613.68, 57618.68, 57704.67, 57680.46, 28633.54, 28643.83, 28672.39, 28665.02, 0.00, 0.00, 0.00
32, 57275.70, 57280.75, 57367.18, 57341.92, 28843.45, 28854.11, 28882.57, 28875.39, 0.00, 0.00, 0.00
33, 56578.72, 56584.27, 56671.01, 56644.82, 29180.43, 29191.67, 29219.43, 29213.08, 0.00, 0.00, 0.00
34, 56818.73, 56824.23, 56910.24, 56884.92, 29024.25, 29034.96, 29063.10, 29056.44, 0.00, 0.00, 0.00
35, 57551.92, 57556.88, 57642.60, 57618.41, 28656.86, 28666.98, 28695.75, 28688.46, 0.00, 0.00, 0.00
36, 57404.26, 57409.65, 57495.68, 57470.87, 28772.91, 28783.21, 28811.84, 28804.83, 0.00, 0.00, 0.00
37, 56667.95, 56673.47, 56760.04, 56734.18, 29142.49, 29153.54, 29181.65, 29175.08, -0.10, 0.01, 0.99
38, 56719.09, 56724.41, 56810.62, 56785.19, 29069.43, 29079.93, 29108.25, 29101.59, 0.00, 0.00, 0.00
39, 57488.62, 57493.94, 57579.79, 57555.16, 28688.11, 28698.43, 28727.00, 28719.80, 0.00, 0.00, 0.00
40, 57546.98, 57552.25, 57638.51, 57613.77, 28696.76, 28707.30, 28735.83, 28728.70, 0.00, 0.00, 0.00
41, 56793.84, 56799.45, 56886.17, 56860.40, 29076.45, 29086.84, 29115.29, 29108.65, 0.00, 0.00, 0.00
42, 56647.97, 56653.42, 56739.77, 56714.02, 29111.54, 29122.00, 29150.47, 29143.75, 0.00, 0.00, 0.00
43, 57371.32, 57376.64, 57462.49, 57438.19, 28735.18, 28745.48, 28773.98, 28766.78, 0.00, 0.00, 0.00
44, 57604.11, 57609.07, 57695.30, 57670.94, 28663.74, 28674.18, 28702.34, 28695.35, 0.00, 0.00, 0.00
45, 56925.18, 56930.59, 57017.09, 56991.67, 29026.87, 29037.78, 29065.67, 29059.12, 0.00, 0.00, 0.00
46, 56575.64, 56581.38, 56667.91, 56642.00, 29168.13, 29178.88, 29206.67, 29200.38, 0.00, 0.00, 0.00
47, 57218.63, 57223.77, 57309.91, 57285.13, 28818.86, 28829.12, 28857.44, 28850.58, -0.10, 0.00, 0.98
48, 57643.45, 57648.45, 57734.58, 57710.48, 28632.54, 28642.71, 28671.50, 28664.28, 0.00, 0.00, 0.00
49, 57046.66, 57051.84, 57138.63, 57113.36, 28969.25, 28979.95, 29008.29, 29001.50, 0.00, 0.00, 0.00
50, 56565.22, 56570.81, 56657.63, 56631.96, 29173.79, 29184.76, 29212.86, 29206.40, 0.00, 0.00, 0.00
51, 57103.00, 57108.46, 57194.29, 57169.61, 28869.65, 28880.35, 28908.65, 28901.79, 0.00, 0.00, 0.00
52, 57664.86, 57669.64, 57755.79, 57731.56, 28621.25, 28631.67, 28660.34, 28653.13, 0.00, 0.00, 0.00
53, 57193.24, 57198.25, 57284.81, 57259.67, 28898.75, 28909.59, 28937.80, 28931.22, 0.00, 0.00, 0.00
54, 56599.09, 56604.41, 56690.95, 56664.80, 29175.80, 29186.86, 29214.94, 29208.57, 0.00, 0.00, 0.00
55, 56982.24, 56987.38, 57073.52, 57048.45, 28940.68, 28951.34, 28979.88, 28972.84, 0.00, 0.00, 0.00
56, 57647.52, 57652.61, 57738.78, 57714.48, 28632.76, 28642.89, 28671.74, 28664.35, 0.00, 0.00, 0.00
57, 57352.47, 57358.06, 57444.59, 57419.64, 28826.28, 28836.72, 28865.15, 28858.00, 0.00, 0.00, 0.00
58, 56671.86, 56677.63, 56764.33, 56738.54, 29162.74, 29173.67, 29201.86, 29195.20, -0.10, 0.00, 0.99
59, 56878.13, 56883.24, 56969.34, 56944.44, 29022.02, 29032.57, 29060.91, 29054.14, 0.00, 0.00, 0.00
60, 57587.93, 57592.71, 57678.81, 57654.82, 28660.30, 28670.16, 28698.81, 28691.53, 0.00, 0.00, 0.00
61, 57462.02, 57467.07, 57553.55, 57528.92, 28767.72, 28777.83, 28806.41, 28799.26, 0.00, 0.00, 0.00
62, 56723.68, 56728.73, 56815.25, 56789.61, 29137.87, 29148.75, 29177.03, 29170.25, 0.00, 0.00, 0.00
63, 56733.26, 56738.65, 56824.75, 56799.54, 29089.21, 29099.80, 29128.44, 29121.75, 0.00, 0.00, 0.00
64, 57468.43, 57473.53, 57559.29, 57535.27, 28717.95, 28728.16, 28757.15, 28749.75, 0.00, 0.00, 0.00
65, 57534.66, 57539.56, 57626.21, 57601.47, 28724.03, 28734.51, 28763.07, 28755.92, 0.00, 0.00, 0.00
66, 56809.71, 56815.43, 56902.27, 56876.14, 29098.80, 29109.99, 29137.89, 29131.32, 0.00, 0.00, 0.00
67, 56646.43, 56652.11, 56738.56, 56712.59, 29148.10, 29158.88, 29187.04, 29180.49, 0.00, 0.00, 0.00
68, 57346.89, 57352.05, 57438.01, 57413.43, 28776.73, 28787.32, 28816.02, 28808.63, -0.11, 0.01, 0.99
69, 57600.96, 57605.88, 57692.24, 57667.34, 28692.04, 28702.50, 28731.20, 28723.69, 0.00, 0.00, 0.00
70, 56949.58, 56955.02, 57041.89, 57016.17, 29047.57, 29058.07, 29086.21, 29079.69, 0.00, 0.00, 0.00
71, 56622.33, 56628.01, 56714.44, 56688.63, 29182.41, 29193.19, 29221.55, 29215.03, 0.00, 0.00, 0.00
72, 57228.64, 57233.85, 57319.95, 57295.19, 28843.65, 28854.27, 28882.63, 28875.61, 0.00, 0.00, 0.00
73, 57621.19, 57626.06, 57712.56, 57687.93, 28668.14, 28678.45, 28706.86, 28699.88, 0.00, 0.00, 0.00
74, 57034.18, 57039.28, 57126.05, 57100.52, 28985.14, 28995.64, 29024.25, 29017.14, 0.00, 0.00, 0.00
75, 56581.14, 56586.64, 56672.87, 56647.12, 29186.82, 29197.68, 29225.64, 29219.00, 0.00, 0.00, 0.00
76, 57067.78, 57072.81, 57158.75, 57134.03, 28903.20, 28914.06, 28942.33, 28935.34, 0.00, 0.00, 0.00
77, 57596.78, 57601.83, 57687.61, 57663.45, 28664.35, 28674.54, 28703.57, 28696.15, 0.00, 0.00, 0.00
78, 57172.65, 57177.86, 57264.32, 57239.20, 28907.13, 28917.86, 28946.18, 28939.34, -0.10, 0.01, 0.98
79, 56583.80, 56589.41, 56676.11, 56649.89, 29184.78, 29195.96, 29223.99, 29217.66, 0.00, 0.00, 0.00
80, 56938.47, 56943.82, 57029.73, 57004.93, 28974.25, 28985.34, 29013.64, 29006.77, 0.00, 0.00, 0.00
81, 57597.74, 57602.50, 57688.75, 57664.48, 28666.80, 28677.24, 28705.88, 28698.59, 0.00, 0.00, 0.00
82, 57326.25, 57331.39, 57417.92, 57392.97, 28850.67, 28861.09, 28889.58, 28882.65, 0.00, 0.00, 0.00
83, 56648.13, 56653.55, 56740.35, 56714.20, 29176.87, 29187.89, 29216.19, 29209.46, 0.00, 0.00, 0.00
84, 56817.20, 56822.89, 56909.17, 56883.69, 29053.60, 29064.20, 29092.78, 29085.97, 0.00, 0.00, 0.00
85, 57525.83, 57530.91, 57616.61, 57592.46, 28703.97, 28714.37, 28743.31, 28735.83, 0.00, 0.00, 0.00
86, 57437.90, 57442.66, 57529.28, 57504.29, 28798.59, 28808.89, 28837.62, 28830.42, 0.00, 0.00, 0.00
87, 56728.97, 56734.29, 56821.20, 56795.54, 29157.76, 29168.69, 29197.03, 29190.33, 0.00, 0.00, 0.00
88, 56711.76, 56717.17, 56803.54, 56777.88, 29116.54, 29127.36, 29155.90, 29149.22, -0.10, 0.01, 0.98
89, 57431.11, 57436.07, 57522.28, 57497.67, 28745.66, 28756.37, 28784.98, 28777.85, 0.00, 0.00, 0.00
90, 57539.02, 57543.96, 57630.53, 57606.07, 28729.95, 28740.45, 28768.93, 28761.98, 0.00, 0.00, 0.00
91, 56848.02, 56853.40, 56940.08, 56914.54, 29089.28, 29099.91, 29128.26, 29121.60, 0.00, 0.00, 0.00
92, 56653.91, 56659.30, 56745.76, 56720.07, 29153.47, 29164.64, 29192.58, 29186.04, 0.00, 0.00, 0.00
93, 57332.51, 57337.50, 57423.26, 57398.76, 28795.80, 28806.57, 28834.91, 28828.03, 0.00, 0.00, 0.00
94, 57613.74, 57618.77, 57704.80, 57680.57, 28695.57, 28705.81, 28734.48, 28727.47, 0.00, 0.00, 0.00
95, 56976.25, 56981.59, 57068.56, 57042.72, 29040.71, 29051.19, 29079.48, 29072.69, 0.00, 0.00, 0.00
96, 56623.58, 56629.02, 56715.49, 56689.61, 29186.71, 29197.88, 29225.96, 29219.18, 0.00, 0.00, 0.00
97, 57216.33, 57221.38, 57307.32, 57282.56, 28855.81, 28866.52, 28895.08, 28887.84, 0.00, 0.00, 0.00
98, 57647.45, 57652.59, 57738.55, 57714.23, 28657.15, 28667.68, 28696.53, 28688.93, -0.11, 0.01, 0.97
99, 57104.97, 57110.25, 57196.97, 57171.56, 28963.46, 28974.45, 29002.35, 28995.62, 0.00, 0.00, 0.00
100, 56614.71, 56620.30, 56706.84, 56680.87, 29185.07, 29195.98, 29224.26, 29217.66, 0.00, 0.00, 0.00
101, 57071.63, 57076.96, 57162.93, 57137.79, 28912.56, 28923.22, 28952.19, 28945.04, 0.00, 0.00, 0.00
102, 57623.64, 57628.29, 57714.71, 57690.05, 28651.09, 28661.60, 28690.54, 28683.12, 0.00, 0.00, 0.00
103, 57223.97, 57229.20, 57316.15, 57290.71, 28892.22, 28902.84, 28930.94, 28924.18, 0.00, 0.00, 0.00
104, 56591.11, 56596.76, 56683.60, 56657.27, 29198.60, 29209.39, 29237.29, 29230.87, 0.00, 0.00, 0.00
105, 56918.56, 56923.92, 57009.82, 56984.38, 28991.13, 29001.70, 29030.24, 29023.13, 0.00, 0.00, 0.00
106, 57564.14, 57568.84, 57654.67, 57630.24, 28677.02, 28686.96, 28715.91, 28708.38, 0.00, 0.00, 0.00
107, 57307.03, 57311.93, 57398.70, 57373.42, 28848.63, 28858.98, 28887.75, 28880.15, 0.00, 0.00, 0.00
108, 56651.57, 56656.95, 56743.81, 56717.97, 29172.58, 29183.51, 29211.90, 29205.01, 0.00, 0.00, 0.00
109, 56801.68, 56806.91, 56892.88, 56867.86, 29049.29, 29059.93, 29088.40, 29081.41, -0.11, 0.01, 0.98
110, 57521.95, 57526.86, 57612.65, 57588.55, 28693.36, 28703.86, 28732.54, 28725.30, 0.00, 0.00, 0.00
111, 57476.97, 57482.18, 57568.61, 57543.76, 28766.04, 28777.09, 28805.34, 28798.41, 0.00, 0.00, 0.00
112, 56761.83, 56767.44, 56854.03, 56828.04, 29129.04, 29140.21, 29168.31, 29161.76, 0.00, 0.00, 0.00
113, 56691.82, 56697.28, 56783.29, 56757.54, 29111.51, 29122.38, 29150.83, 29143.95, 0.00, 0.00, 0.00
114, 57393.96, 57398.65, 57484.68, 57459.94, 28743.07, 28753.17, 28781.92, 28774.47, 0.00, 0.00, 0.00
115, 57522.32, 57526.88, 57613.14, 57588.55, 28716.29, 28726.48, 28755.16, 28748.10, 0.00, 0.00, 0.00
116, 56833.58, 56838.76, 56925.44, 56899.80, 29078.79, 29089.61, 29118.11, 29111.31, 0.00, 0.00, 0.00
117, 56607.18, 56612.79, 56699.27, 56673.45, 29148.48, 29159.39, 29187.82, 29181.01, 0.00, 0.00, 0.00
118, 57268.05, 57273.17, 57359.18, 57334.61, 28785.87, 28796.15, 28824.79, 28817.97, 0.00, 0.00, 0.00
119, 57575.61, 57580.30, 57666.47, 57642.22, 28669.20, 28679.16, 28707.98, 28700.85, -0.10, 0.01, 0.99
120, 56952.55, 56957.96, 57044.53, 57019.21, 29020.65, 29031.16, 29059.59, 29052.75, 0.00, 0.00, 0.00
121, 56571.46, 56577.14, 56663.52, 56637.39, 29183.49, 29194.30, 29222.31, 29215.61, 0.00, 0.00, 0.00
122, 57148.16, 57153.16, 57239.11, 57214.23, 28865.64, 28876.15, 28904.74, 28897.29, 0.00, 0.00, 0.00
123, 57606.50, 57611.13, 57697.16, 57672.93, 28666.83, 28677.04, 28705.85, 28698.50, 0.00, 0.00, 0.00
124, 57086.27, 57091.14, 57178.00, 57152.74, 28951.59, 28961.96, 28990.66, 28983.69, 0.00, 0.00, 0.00
125, 56566.23, 56571.55, 56658.00, 56632.34, 29188.20, 29199.33, 29227.39, 29220.72, 0.00, 0.00, 0.00
126, 57014.45, 57019.93, 57105.75, 57080.86, 28929.44, 28940.17, 28968.46, 28961.54, 0.00, 0.00, 0.00
127, 57606.66, 57611.57, 57697.59, 57673.38, 28645.95, 28656.21, 28684.80, 28677.38, 0.00, 0.00, 0.00
128, 57231.39, 57236.22, 57322.99, 57297.69, 28869.67, 28880.33, 28908.36, 28901.34, 0.00, 0.00, 0.00
129, 56604.47, 56609.37, 56696.38, 56670.23, 29171.08, 29182.26, 29210.06, 29203.54, -0.10, 0.01, 1.00
130, 56885.93, 56891.20, 56977.14, 56952.00, 28995.58, 29006.82, 29034.74, 29028.08, 0.00, 0.00, 0.00
131, 57567.34, 57572.64, 57658.22, 57633.97, 28663.00, 28673.58, 28702.23, 28694.68, 0.00, 0.00, 0.00
132, 57362.17, 57367.25, 57453.57, 57428.80, 28801.90, 28812.54, 28841.15, 28833.93, 0.00, 0.00, 0.00
133, 56660.24, 56665.87, 56752.69, 56726.91, 29145.29, 29156.38, 29184.45, 29177.97, 0.00, 0.00, 0.00
134, 56738.76, 56744.50, 56830.34, 56805.05, 29073.96, 29084.54, 29113.06, 29106.35, 0.00, 0.00, 0.00
135, 57491.70, 57496.60, 57582.25, 57558.29, 28706.14, 28715.98, 28744.99, 28737.88, 0.00, 0.00, 0.00
136, 57471.00, 57475.95, 57562.40, 57537.95, 28767.65, 28777.74, 28806.39, 28799.44, 0.00, 0.00, 0.00
137, 56731.50, 56736.97, 56823.92, 56797.88, 29132.44, 29143.39, 29171.46, 29165.18, 0.00, 0.00, 0.00
138, 56660.75, 56666.16, 56752.82, 56726.89, 29128.26, 29139.19, 29167.42, 29160.64, 0.00, 0.00, 0.00
139, 57371.85, 57376.99, 57463.18, 57438.71, 28754.27, 28764.68, 28793.25, 28785.89, -0.09, 0.01, 0.99
140, 57535.69, 57540.79, 57627.02, 57602.57, 28705.92, 28716.04, 28744.63, 28737.77, 0.00, 0.00, 0.00
141, 56849.89, 56855.30, 56942.00, 56916.35, 29066.72, 29077.38, 29105.81, 29099.20, 0.00, 0.00, 0.00
142, 56591.29, 56597.25, 56683.42, 56657.49, 29169.18, 29179.89, 29208.50, 29201.84, 0.00, 0.00, 0.00
143, 57248.61, 57253.79, 57339.84, 57314.86, 28817.86, 28828.09, 28856.86, 28849.98, 0.00, 0.00, 0.00
144, 57596.44, 57601.36, 57687.68, 57662.83, 28681.24, 28691.32, 28720.13, 28712.94, 0.00, 0.00, 0.00
145, 56983.69, 56988.99, 57075.71, 57049.76, 29013.81, 29024.63, 29052.71, 29046.07, 0.00, 0.00, 0.00
146, 56570.90, 56576.33, 56662.90, 56636.73, 29194.37, 29205.32, 29233.46, 29226.87, 0.00, 0.00, 0.00
147, 57129.13, 57134.34, 57220.22, 57195.36, 28880.64, 28890.97, 28919.36, 28912.67, 0.00, 0.00, 0.00
148, 57625.45, 57630.17, 57716.07, 57692.04, 28664.72, 28675.05, 28703.48, 28696.46, 0.00, 0.00, 0.00
149, 57125.20, 57130.39, 57216.84, 57191.92, 28946.96, 28957.76, 28986.05, 28979.21, -0.09, 0.01, 0.99
150, 56573.05, 56578.36, 56665.09, 56639.00, 29204.25, 29215.27, 29243.63, 29237.11, 0.00, 0.00, 0.00
151, 56983.78, 56988.86, 57074.93, 57049.96, 28952.01, 28962.72, 28991.44, 28984.42, 0.00, 0.00, 0.00
152, 57603.53, 57608.27, 57694.34, 57670.47, 28657.35, 28667.63, 28696.58, 28689.25, 0.00, 0.00, 0.00
153, 57262.69, 57267.80, 57354.33, 57329.34, 28874.63, 28885.00, 28913.59, 28906.46, 0.00, 0.00, 0.00
154, 56612.23, 56617.59, 56704.27, 56678.52, 29185.92, 29196.67, 29224.97, 29218.27, 0.00, 0.00, 0.00
155, 56855.66, 56861.09, 56947.01, 56922.27, 29022.49, 29033.22, 29061.47, 29054.76, 0.00, 0.00, 0.00
156, 57541.39, 57546.57, 57632.25, 57608.13, 28691.86, 28702.07, 28730.80, 28723.62, 0.00, 0.00, 0.00
157, 57374.73, 57380.05, 57466.47, 57441.54, 28821.54, 28832.05, 28860.59, 28853.62, 0.00, 0.00, 0.00
158, 56677.27, 56682.70, 56769.65, 56743.37, 29170.81, 29182.06, 29209.86, 29203.47, 0.00, 0.00, 0.00
159, 56746.56, 56752.15, 56838.23, 56812.88, 29096.23, 29107.33, 29135.45, 29128.84, 0.00, 0.00, 0.00
160, 57480.64, 57485.80, 57571.57, 57547.45, 28731.06, 28741.57, 28770.25, 28762.85, -0.11, 0.01, 1.00
161, 57507.82, 57512.78, 57599.21, 57574.31, 28762.29, 28772.28, 28800.96, 28793.70, 0.00, 0.00, 0.00
162, 56784.25, 56789.54, 56876.34, 56850.45, 29131.54, 29142.20, 29170.50, 29163.46, 0.00, 0.00, 0.00
163, 56664.35, 56669.49, 56755.91, 56730.27, 29138.56, 29149.54, 29177.81, 29170.84, 0.00, 0.00, 0.00
164, 57339.29, 57344.23, 57430.13, 57405.89, 28776.22, 28786.81, 28815.51, 28808.02, 0.00, 0.00, 0.00
165, 57574.36, 57579.37, 57665.46, 57641.21, 28693.92, 28704.49, 28733.12, 28725.72, 0.00, 0.00, 0.00
166, 56888.90, 56894.35, 56980.83, 56955.39, 29062.38, 29073.09, 29101.21, 29094.33, 0.00, 0.00, 0.00
167, 56580.98, 56586.57, 56672.82, 56647.14, 29184.47, 29195.42, 29223.36, 29216.81, 0.00, 0.00, 0.00
168, 57228.49, 57233.74, 57319.66, 57295.07, 28831.54, 28842.02, 28870.36, 28863.28, 0.00, 0.00, 0.00
169, 57604.27, 57609.23, 57695.62, 57671.25, 28665.87, 28676.04, 28704.76, 28697.54, 0.00, 0.00, 0.00
170, 57010.94, 57015.90, 57102.76, 57077.34, 28995.91, 29006.28, 29034.89, 29028.12, -0.10, 0.01, 0.99
171, 56570.65, 56576.11, 56662.30, 56636.86, 29177.23, 29188.00, 29216.25, 29209.77, 0.00, 0.00, 0.00
172, 57094.98, 57100.28, 57186.20, 57161.66, 28881.98, 28892.29, 28920.96, 28914.17, 0.00, 0.00, 0.00
173, 57605.81, 57610.66, 57697.00, 57672.62, 28648.97, 28658.94, 28687.77, 28680.71, 0.00, 0.00, 0.00
174, 57128.73, 57133.88, 57220.66, 57195.23, 28910.44, 28920.83, 28949.51, 28942.67, 0.00, 0.00, 0.00
175, 56568.98, 56574.68, 56661.07, 56635.09, 29170.39, 29181.19, 29209.66, 29202.91, 0.00, 0.00, 0.00
176, 56964.85, 56970.15, 57056.22, 57030.86, 28948.95, 28959.05, 28987.78, 28980.80, 0.00, 0.00, 0.00
177, 57595.39, 57600.58, 57686.57, 57662.31, 28663.07, 28673.22, 28701.65, 28694.54, 0.00, 0.00, 0.00
178, 57282.51, 57287.70, 57374.31, 57349.07, 28862.14, 28872.80, 28900.76, 28894.30, 0.00, 0.00, 0.00
179, 56626.58, 56632.23, 56718.91, 56692.88, 29174.05, 29184.92, 29212.70, 29206.31, 0.00, 0.00, 0.00
180, 56838.72, 56844.60, 56930.45, 56905.04, 29017.99, 29028.68, 29056.80, 29049.80, -0.10, 0.01, 0.99
181, 57532.27, 57537.28, 57623.29, 57598.63, 28684.26, 28694.45, 28723.33, 28715.80, 0.00, 0.00, 0.00
182, 57404.80, 57409.96, 57496.57, 57471.65, 28789.45, 28800.06, 28828.88, 28821.77, 0.00, 0.00, 0.00
183, 56703.69, 56709.39, 56795.76, 56770.48, 29137.49, 29148.35, 29176.74, 29169.94, 0.00, 0.00, 0.00
184, 56737.13, 56742.67, 56828.77, 56803.76, 29081.83, 29092.45, 29120.99, 29114.17, 0.00, 0.00, 0.00
185, 57447.07, 57451.96, 57537.41, 57513.29, 28714.93, 28725.50, 28753.82, 28746.71, 0.00, 0.00, 0.00
186, 57491.23, 57496.35, 57582.25, 57557.77, 28722.84, 28733.52, 28761.62, 28754.67, 0.00, 0.00, 0.00
187, 56776.58, 56782.06, 56868.63, 56842.94, 29091.69, 29102.39, 29130.20, 29123.90, 0.00, 0.00, 0.00
188, 56628.10, 56633.37, 56719.76, 56694.26, 29119.16, 29130.00, 29158.27, 29151.64, 0.00, 0.00, 0.00
189, 57315.04, 57319.91, 57405.63, 57381.42, 28763.25, 28773.69, 28802.28, 28794.99, 0.00, 0.00, 0.00
190, 57554.42, 57559.45, 57645.57, 57621.05, 28690.77, 28700.87, 28729.34, 28722.39, -0.12, 0.01, 0.99
191, 56894.89, 56900.25, 56986.96, 56961.23, 29039.36, 29049.85, 29078.03, 29071.28, 0.00, 0.00, 0.00
192, 56572.13, 56577.63, 56664.11, 56638.22, 29161.83, 29172.67, 29200.94, 29194.35, 0.00, 0.00, 0.00
193, 57185.26, 57190.42, 57276.25, 57251.40, 28828.14, 28838.80, 28867.05, 28860.37, 0.00, 0.00, 0.00
194, 57556.25, 57561.51, 57647.65, 57623.22, 28673.98, 28684.35, 28712.92, 28705.92, 0.00, 0.00, 0.00
195, 57018.54, 57023.95, 57110.47, 57085.35, 28988.20, 28999.06, 29027.70, 29020.56, 0.00, 0.00, 0.00
196, 56537.82, 56543.27, 56629.89, 56604.11, 29200.50, 29211.67, 29239.70, 29232.95, 0.00, 0.00, 0.00
197, 56996.93, 57002.49, 57088.21, 57063.35, 28922.75, 28933.42, 28961.96, 28954.96, 0.00, 0.00, 0.00
198, 57536.81, 57541.95, 57627.96, 57603.50, 28672.24, 28682.67, 28711.40, 28704.29, 0.00, 0.00, 0.00
199, 57107.72, 57112.86, 57199.30, 57173.91, 28931.36, 28942.07, 28970.52, 28963.68, 0.00, 0.00, 0.00
200, 56523.49, 56529.26, 56615.60, 56589.65, 29202.20, 29213.42, 29241.40, 29234.81, 0.00, 0.00, 0.00
201, 56883.04, 56888.72, 56974.66, 56949.63, 28985.90, 28996.65, 29024.99, 29018.02, -0.12, 0.01, 0.99
202, 57520.63, 57525.63, 57611.89, 57587.50, 28686.65, 28697.16, 28725.88, 28718.66, 0.00, 0.00, 0.00
203, 57242.10, 57247.26, 57333.81, 57309.04, 28860.97, 28871.48, 28899.91, 28893.25, 0.00, 0.00, 0.00
204, 56572.46, 56577.74, 56664.49, 56638.71, 29179.44, 29190.39, 29218.67, 29211.94, 0.00, 0.00, 0.00
205, 56746.36, 56751.59, 56837.82, 56812.32, 29038.07, 29048.84, 29077.18, 29070.21, 0.00, 0.00, 0.00
206, 57448.77, 57453.44, 57539.38, 57514.93, 28673.67, 28683.99, 28712.51, 28705.32, 0.00, 0.00, 0.00
207, 57360.23, 57365.23, 57451.60, 57426.68, 28767.45, 28778.00, 28806.14, 28799.13, 0.00, 0.00, 0.00
208, 56649.45, 56654.92, 56741.58, 56715.85, 29135.01, 29145.89, 29173.47, 29167.35, 0.00, 0.00, 0.00
209, 56633.91, 56639.39, 56725.42, 56700.03, 29097.95, 29108.74, 29136.79, 29130.58, 0.00, 0.00, 0.00
210, 57351.40, 57356.32, 57442.15, 57417.74, 28735.94, 28746.33, 28774.88, 28767.88, 0.00, 0.00, 0.00
211, 57447.98, 57452.83, 57539.22, 57514.64, 28727.06, 28737.21, 28765.76, 28758.80, -0.12, 0.01, 0.99
212, 56732.26, 56737.58, 56824.52, 56798.62, 29084.85, 29095.44, 29123.67, 29116.81, 0.00, 0.00, 0.00
213, 56543.36, 56548.70, 56635.16, 56609.34, 29133.73, 29144.46, 29172.71, 29165.87, 0.00, 0.00, 0.00
214, 57239.55, 57244.56, 57330.50, 57305.89, 28754.80, 28765.53, 28794.14, 28787.06, 0.00, 0.00, 0.00
215, 57529.30, 57534.42, 57620.63, 57596.22, 28657.55, 28667.94, 28696.64, 28689.27, 0.00, 0.00, 0.00
216, 56880.76, 56885.93, 56972.67, 56947.46, 29024.46, 29035.23, 29063.70, 29056.69, 0.00, 0.00, 0.00
217, 56521.03, 56526.26, 56612.63, 56587.35, 29163.91, 29175.04, 29203.20, 29196.50, 0.00, 0.00, 0.00
218, 57127.17, 57132.27, 57218.09, 57193.78, 28831.00, 28841.71, 28870.07, 28863.43, 0.00, 0.00, 0.00
219, 57567.05, 57571.79, 57657.80, 57633.46, 28664.01, 28674.58, 28703.19, 28696.08, 0.00, 0.00, 0.00
220, 57014.00, 57019.28, 57105.93, 57080.52, 28987.39, 28998.26, 29026.40, 29019.74, 0.00, 0.00, 0.00
221, 56505.79, 56511.27, 56597.75, 56571.73, 29211.36, 29222.29, 29250.36, 29243.86, -0.12, 0.02, 0.98
222, 56979.54, 56984.36, 57070.11, 57045.09, 28938.49, 28948.88, 28977.76, 28970.38, 0.00, 0.00, 0.00
223, 57557.50, 57562.40, 57647.88, 57623.76, 28675.86, 28686.14, 28715.44, 28708.04, 0.00, 0.00, 0.00
224, 57108.66, 57114.00, 57200.14, 57175.05, 28939.72, 28950.40, 28978.83, 28972.20, 0.00, 0.00, 0.00
225, 56514.68, 56520.54, 56607.00, 56580.82, 29215.09, 29226.04, 29254.21, 29247.88, 0.00, 0.00, 0.00
226, 56821.55, 56826.80, 56912.70, 56887.64, 29020.34, 29030.80, 29059.64, 29052.62, 0.00, 0.00, 0.00
227, 57475.99, 57480.84, 57566.98, 57542.44, 28707.60, 28718.12, 28746.96, 28739.74, 0.00, 0.00, 0.00
228, 57242.39, 57247.58, 57333.99, 57308.91, 28865.04, 28875.95, 28904.27, 28897.43, 0.00, 0.00, 0.00
229, 56547.16, 56552.95, 56639.59, 56613.59, 29204.12, 29214.67, 29243.12, 29236.44, 0.00, 0.00, 0.00
230, 56694.71, 56700.11, 56786.15, 56760.82, 29069.09, 29079.48, 29108.21, 29101.52, 0.00, 0.00, 0.00
231, 57437.48, 57442.06, 57528.05, 57503.86, 28701.07, 28710.61, 28739.67, 28732.72, -0.12, 0.03, 0.99
232, 57383.39, 57388.37, 57474.91, 57450.24, 28770.25, 28780.51, 28809.14, 28802.05, 0.00, 0.00, 0.00
233, 56644.77, 56650.25, 56737.15, 56711.05, 29130.76, 29141.51, 29169.99, 29163.15, 0.00, 0.00, 0.00
234, 56603.96, 56609.55, 56695.87, 56670.14, 29114.73, 29125.60, 29153.94, 29147.37, 0.00, 0.00, 0.00
235, 57351.85, 57356.70, 57442.73, 57418.14, 28726.93, 28737.55, 28766.22, 28758.89, 0.00, 0.00, 0.00
236, 57509.54, 57514.21, 57600.69, 57576.06, 28694.99, 28705.41, 28734.24, 28726.62, 0.00, 0.00, 0.00
237, 56811.16, 56816.50, 56903.38, 56877.50, 29070.81, 29081.21, 29109.55, 29102.73, 0.00, 0.00, 0.00
238, 56584.58, 56589.79, 56676.33, 56650.47, 29157.71, 29168.22, 29196.54, 29190.01, 0.00, 0.00, 0.00
239, 57251.11, 57256.14, 57341.90, 57317.38, 28787.17, 28797.56, 28826.11, 28819.09, 0.00, 0.00, 0.00
240, 57582.47, 57587.14, 57673.58, 57649.17, 28643.31, 28653.46, 28682.00, 28674.78, 0.00, 0.00, 0.00
241, 56948.46, 56953.90, 57040.58, 57015.12, 28997.68, 29008.27, 29036.28, 29029.84, -0.14, 0.03, 0.99
242, 56552.66, 56558.11, 56644.26, 56618.71, 29158.34, 29169.21, 29197.14, 29191.02, 0.00, 0.00, 0.00
243, 57159.29, 57164.56, 57250.39, 57225.63, 28816.40, 28826.87, 28855.27, 28848.41, 0.00, 0.00, 0.00
244, 57656.34, 57661.48, 57747.77, 57723.16, 28596.78, 28606.74, 28635.56, 28628.31, 0.00, 0.00, 0.00
245, 57135.57, 57140.78, 57228.00, 57202.34, 28883.57, 28894.01, 28922.60, 28915.40, 0.00, 0.00, 0.00
246, 56596.71, 56602.44, 56689.32, 56663.10, 29142.00, 29153.11, 29181.23, 29174.44, 0.00, 0.00, 0.00
247, 57041.27, 57046.70, 57132.60, 57107.34, 28866.03, 28876.91, 28905.16, 28898.21, 0.00, 0.00, 0.00
248, 57648.21, 57652.90, 57738.98, 57714.59, 28578.67, 28588.86, 28617.56, 28610.57, 0.00, 0.00, 0.00
249, 57271.16, 57276.23, 57363.09, 57337.99, 28810.39, 28820.79, 28849.33, 28842.04, 0.00, 0.00, 0.00
250, 56628.14, 56633.66, 56720.25, 56694.41, 29107.11, 29117.79, 29145.87, 29139.28, 0.00, 0.00, 0.00
251, 56897.61, 56903.09, 56989.10, 56964.04, 28935.18, 28945.82, 28973.92, 28967.28, 0.00, 0.00, 0.00
252, 57561.73, 57566.56, 57652.84, 57628.43, 28612.20, 28622.26, 28651.02, 28643.83, -0.15, 0.04, 0.98
253, 57355.13, 57359.98, 57446.95, 57421.85, 28753.42, 28763.86, 28792.29, 28785.09, 0.00, 0.00, 0.00
254, 56598.93, 56604.79, 56691.49, 56665.43, 29121.24, 29132.39, 29160.24, 29153.60, 0.00, 0.00, 0.00
255, 56696.79, 56702.39, 56788.54, 56762.79, 29028.19, 29038.96, 29066.99, 29060.37, 0.00, 0.00, 0.00
0, 57445.19, 57450.73, 57536.27, 57511.86, 28650.89, 28661.33, 28689.87, 28682.67, 0.00, 0.00, 0.00
1, 57485.60, 57490.68, 57576.93, 57552.63, 28663.16, 28673.67, 28702.03, 28694.79, 0.00, 0.00, 0.00
2, 56822.60, 56827.88, 56914.82, 56889.17, 29009.46, 29020.21, 29048.53, 29041.53, 0.00, 0.00, 0.00
3, 56698.39, 56703.76, 56790.33, 56764.40, 29045.51, 29056.15, 29084.29, 29077.52, 0.00, 0.00, 0.00
4, 57319.01, 57324.11, 57410.43, 57385.33, 28723.53, 28733.93, 28762.47, 28755.34, 0.00, 0.00, 0.00
5, 57553.26, 57557.98, 57644.61, 57619.87, 28639.51, 28649.57, 28678.03, 28670.94, 0.00, 0.00, 0.00
6, 56992.83, 56998.33, 57084.86, 57059.42, 28940.90, 28950.89, 28979.46, 28972.42, -0.14, 0.05, 0.97
7, 56691.46, 56697.14, 56783.60, 56758.03, 29063.48, 29074.28, 29102.64, 29095.69, 0.00, 0.00, 0.00
8, 57178.96, 57184.23, 57270.11, 57245.48, 28794.39, 28804.89, 28833.62, 28826.40, 0.00, 0.00, 0.00
9, 57523.84, 57528.98, 57614.64, 57590.36, 28649.55, 28659.76, 28688.22, 28680.93, 0.00, 0.00, 0.00
10, 57141.63, 57146.84, 57233.27, 57208.19, 28860.10, 28870.56, 28898.75, 28891.80, 0.00, 0.00, 0.00
11, 56807.56, 56812.52, 56899.45, 56873.88, 29000.70, 29011.54, 29039.59, 29032.81, 0.00, 0.00, 0.00
12, 57096.23, 57101.46, 57187.59, 57162.86, 28841.44, 28851.92, 28880.29, 28873.00, 0.00, 0.00, 0.00
13, 57426.84, 57432.00, 57517.94, 57493.49, 28688.66, 28698.72, 28727.27, 28719.93, 0.00, 0.00, 0.00
14, 57193.51, 57198.74, 57284.97, 57260.09, 28820.12, 28830.80, 28858.65, 28851.94, 0.00, 0.00, 0.00
15, 56836.64, 56841.89, 56928.33, 56902.82, 28983.19, 28994.37, 29022.09, 29015.54, 0.00, 0.00, 0.00
16, 57017.64, 57022.88, 57109.09, 57083.89, 28878.92, 28889.70, 28917.93, 28911.00, -0.15, 0.07, 0.98
17, 57402.92, 57407.91, 57493.94, 57469.39, 28710.08, 28720.61, 28749.10, 28742.17, 0.00, 0.00, 0.00
18, 57257.77, 57262.91, 57349.16, 57323.98, 28800.33, 28810.75, 28839.14, 28832.41, 0.00, 0.00, 0.00
19, 56870.73, 56876.02, 56962.82, 56937.25, 28994.03, 29004.65, 29032.68, 29026.22, 0.00, 0.00, 0.00
20, 56952.09, 56957.20, 57043.48, 57018.76, 28930.20, 28940.84, 28969.11, 28962.27, 0.00, 0.00, 0.00
21, 57355.56, 57360.74, 57446.57, 57422.43, 28737.70, 28748.23, 28776.66, 28769.58, 0.00, 0.00, 0.00
22, 57327.66, 57332.67, 57419.21, 57394.20, 28765.60, 28776.08, 28804.45, 28797.32, 0.00, 0.00, 0.00
23, 56931.57, 56936.91, 57023.72, 56997.93, 28961.56, 28972.22, 29000.36, 28993.34, 0.00, 0.00, 0.00
24, 56908.28, 56913.78, 57000.14, 56974.80, 28957.87, 28968.44, 28996.78, 28989.94, 0.00, 0.00, 0.00
25, 57313.07, 57318.30, 57404.39, 57379.68, 28754.40, 28764.91, 28793.11, 28786.30, 0.00, 0.00, 0.00
26, 57387.27, 57392.30, 57478.27, 57453.68, 28741.71, 28752.46, 28780.80, 28773.71, -0.16, 0.08, 0.96
27, 57008.79, 57013.98, 57100.50, 57075.20, 28928.41, 28938.94, 28967.03, 28960.37, 0.00, 0.00, 0.00
28, 56851.10, 56856.58, 56942.72, 56917.53, 28991.40, 29002.15, 29030.27, 29023.76, 0.00, 0.00, 0.00
29, 57221.61, 57226.81, 57313.02, 57288.23, 28789.36, 28799.91, 28828.23, 28821.10, 0.00, 0.00, 0.00
30, 57406.25, 57411.44, 57497.58, 57472.97, 28709.88, 28720.47, 28748.75, 28741.53, 0.00, 0.00, 0.00
31, 57076.94, 57082.20, 57168.70, 57143.57, 28889.88, 28900.31, 28928.72, 28921.68, 0.00, 0.00, 0.00
32, 56854.36, 56859.44, 56945.76, 56920.41, 28975.08, 28985.67, 29013.88, 29007.36, 0.00, 0.00, 0.00
33, 57136.33, 57141.14, 57227.08, 57202.56, 28812.87, 28823.09, 28851.68, 28845.04, 0.00, 0.00, 0.00
34, 57374.29, 57379.32, 57465.30, 57440.83, 28709.09, 28719.46, 28748.03, 28740.72, 0.00, 0.00, 0.00
35, 57131.35, 57136.38, 57222.97, 57197.62, 28852.55, 28862.96, 28891.48, 28884.67, 0.00, 0.00, 0.00
36, 56871.82, 56877.27, 56963.62, 56938.07, 28980.20, 28991.04, 29018.98, 29012.41, 0.00, 0.00, 0.00
37, 57084.48, 57089.64, 57176.27, 57151.29, 28857.67, 28868.37, 28896.54, 28889.63, -0.17, 0.10, 0.96
38, 57372.70, 57377.73, 57464.16, 57439.60, 28724.29, 28734.55, 28763.19, 28755.85, 0.00, 0.00, 0.00
39, 57191.68, 57196.79, 57283.41, 57258.39, 28825.46, 28836.07, 28864.37, 28857.44, 0.00, 0.00, 0.00
40, 56874.21, 56879.62, 56966.08, 56940.84, 28984.80, 28995.82, 29024.25, 29017.17, 0.00, 0.00, 0.00
41, 56997.30, 57002.51, 57089.04, 57063.67, 28904.11, 28914.97, 28943.29, 28936.52, 0.00, 0.00, 0.00
42, 57298.38, 57303.66, 57389.78, 57365.06, 28751.07, 28761.20, 28789.89, 28782.97, 0.00, 0.00, 0.00
43, 57209.69, 57215.14, 57301.55, 57276.12, 28804.42, 28815.09, 28843.54, 28836.41, 0.00, 0.00, 0.00
44, 56906.18, 56911.68, 56998.02, 56972.63, 28961.18, 28972.06, 29000.29, 28993.16, 0.00, 0.00, 0.00
45, 56947.73, 56953.16, 57039.26, 57014.20, 28938.94, 28949.89, 28977.76, 28970.77, 0.00, 0.00, 0.00
46, 57260.52, 57265.57, 57351.58, 57326.84, 28787.10, 28797.79, 28825.79, 28819.24, 0.00, 0.00, 0.00
47, 57245.95, 57251.15, 57337.63, 57312.51, 28807.78, 28818.37, 28846.91, 28840.10, -0.19, 0.13, 0.97
48, 56936.17, 56941.54, 57028.37, 57002.76, 28963.46, 28974.21, 29002.39, 28995.71, 0.00, 0.00, 0.00
49, 56906.09, 56911.29, 56997.57, 56972.20, 28948.53, 28959.50, 28987.42, 28980.91, 0.00, 0.00, 0.00
50, 57263.29, 57268.48, 57354.17, 57329.56, 28771.14, 28781.76, 28810.23, 28803.15, 0.00, 0.00, 0.00
51, 57368.16, 57373.28, 57459.54, 57434.91, 28747.11, 28757.84, 28786.16, 28778.96, 0.00, 0.00, 0.00
52, 57011.79, 57017.22, 57103.70, 57078.46, 28922.46, 28933.57, 28961.80, 28954.65, 0.00, 0.00, 0.00
53, 56877.66, 56882.93, 56969.14, 56943.95, 28982.28, 28992.92, 29021.24, 29014.35, 0.00, 0.00, 0.00
54, 57148.69, 57153.92, 57240.11, 57215.37, 28840.77, 28851.18, 28879.64, 28872.66, 0.00, 0.00, 0.00
55, 57305.60, 57310.81, 57397.13, 57372.41, 28782.70, 28793.27, 28821.48, 28814.64, 0.00, 0.00, 0.00
56, 57076.14, 57081.39, 57167.98, 57142.55, 28906.55, 28917.05, 28945.24, 28938.67, 0.00, 0.00, 0.00
57, 56974.33, 56979.56, 57065.86, 57040.55, 28936.68, 28947.34, 28975.41, 28968.73, -0.18, 0.16, 0.97
58, 57242.03, 57247.22, 57333.36, 57308.84, 28803.20, 28814.10, 28842.33, 28835.52, 0.00, 0.00, 0.00
59, 57471.61, 57476.57, 57562.78, 57538.17, 28696.53, 28707.26, 28735.76, 28728.79, 0.00, 0.00, 0.00
60, 57283.72, 57289.11, 57375.38, 57350.48, 28795.60, 28805.94, 28834.55, 28827.02, 0.00, 0.00, 0.00
61, 57028.89, 57034.41, 57121.00, 57095.20, 28914.26, 28924.77, 28953.40, 28946.31, 0.00, 0.00, 0.00
62, 57151.64, 57157.16, 57243.51, 57217.98, 28838.60, 28848.81, 28877.63, 28870.70, 0.00, 0.00, 0.00
63, 57373.86, 57378.74, 57465.46, 57440.70, 28715.93, 28726.46, 28754.80, 28747.63, 0.00, 0.00, 0.00
64, 57223.97, 57229.07, 57315.84, 57290.65, 28810.35, 28821.10, 28849.08, 28842.09, 0.00, 0.00, 0.00
65, 56977.07, 56982.17, 57069.01, 57043.35, 28951.30, 28962.05, 28989.94, 28983.35, 0.00, 0.00, 0.00
66, 57066.37, 57071.36, 57157.70, 57132.58, 28893.25, 28904.29, 28932.10, 28925.39, 0.00, 0.00, 0.00
67, 57329.23, 57334.32, 57420.60, 57395.95, 28760.35, 28771.19, 28799.13, 28792.58, -0.18, 0.19, 0.93
68, 57274.33, 57279.20, 57365.95, 57341.12, 28802.75, 28813.54, 28841.66, 28834.93, 0.00, 0.00, 0.00
69, 57012.28, 57017.35, 57103.99, 57078.48, 28947.27, 28958.16, 28986.32, 28979.66, 0.00, 0.00, 0.00
70, 57026.25, 57031.39, 57117.67, 57092.30, 28906.77, 28917.41, 28945.91, 28938.89, 0.00, 0.00, 0.00
71, 57287.27, 57292.37, 57378.69, 57354.11, 28785.16, 28795.44, 28823.89, 28817.19, 0.00, 0.00, 0.00
72, 57300.93, 57306.05, 57392.64, 57367.52, 28795.17, 28805.77, 28834.08, 28827.18, 0.00, 0.00, 0.00
73, 57029.80, 57034.96, 57121.69, 57096.32, 28937.19, 28948.17, 28976.76, 28969.56, 0.00, 0.00, 0.00
74, 56970.10, 56975.29, 57061.50, 57036.44, 28960.30, 28971.14, 28999.51, 28992.80, 0.00, 0.00, 0.00
75, 57207.79, 57212.93, 57299.21, 57274.29, 28824.65, 28835.02, 28863.21, 28856.62, 0.00, 0.00, 0.00
76, 57280.72, 57286.02, 57372.14, 57347.38, 28773.80, 28783.93, 28812.67, 28805.61, 0.00, 0.00, 0.00
77, 57056.18, 57061.79, 57148.36, 57122.63, 28902.28, 28912.90, 28941.39, 28934.33, -0.13, 0.18, 0.93
78, 56950.01, 56955.57, 57042.07, 57016.37, 28948.66, 28959.32, 28987.73, 28980.76, 0.00, 0.00, 0.00
79, 57146.52, 57151.53, 57237.65, 57212.80, 28833.46, 28843.83, 28872.17, 28865.06, 0.00, 0.00, 0.00
80, 57279.54, 57284.64, 57370.67, 57345.93, 28776.26, 28786.72, 28815.00, 28808.11, 0.00, 0.00, 0.00
81, 57091.36, 57096.81, 57183.09, 57157.75, 28882.61, 28893.23, 28921.77, 28914.84, 0.00, 0.00, 0.00
82, 56933.09, 56938.54, 57024.86, 56999.54, 28951.34, 28961.98, 28990.53, 28983.62, 0.00, 0.00, 0.00
83, 57086.71, 57091.98, 57178.35, 57153.61, 28870.94, 28881.94, 28910.37, 28903.40, 0.00, 0.00, 0.00
84, 57284.66, 57289.60, 57375.96, 57351.47, 28772.42, 28783.41, 28811.71, 28804.76, 0.00, 0.00, 0.00
85, 57171.54, 57176.72, 57263.00, 57238.14, 28825.23, 28836.10, 28864.24, 28857.62, 0.00, 0.00, 0.00
86, 56968.74, 56973.99, 57060.16, 57035.10, 28911.33, 28922.26, 28950.45, 28943.74, 0.00, 0.00, 0.00
87, 57063.20, 57068.43, 57154.50, 57129.49, 28846.33, 28857.06, 28885.47, 28878.70, 0.00, 0.00, 0.00
88, 57250.95, 57255.87, 57342.10, 57317.34, 28761.06, 28771.70, 28800.36, 28793.25, -0.12, 0.22, 0.92
89, 57178.26, 57183.00, 57269.62, 57244.29, 28811.96, 28822.55, 28851.14, 28843.88, 0.00, 0.00, 0.00
90, 56978.93, 56984.30, 57071.02, 57045.36, 28927.47, 28937.82, 28966.50, 28959.46, 0.00, 0.00, 0.00
91, 57028.33, 57033.54, 57119.97, 57094.42, 28898.99, 28909.54, 28937.97, 28931.20, 0.00, 0.00, 0.00
92, 57235.26, 57240.31, 57326.50, 57301.38, 28797.03, 28807.46, 28835.67, 28828.92, 0.00, 0.00, 0.00
93, 57228.20, 57233.38, 57319.68, 57295.01, 28813.50, 28824.05, 28852.37, 28845.48, 0.00, 0.00, 0.00
94, 57022.90, 57028.24, 57114.56, 57089.46, 28923.74, 28934.49, 28962.70, 28956.04, 0.00, 0.00, 0.00
95, 56998.67, 57003.99, 57090.18, 57065.14, 28928.63, 28939.36, 28967.44, 28960.66, 0.00, 0.00, 0.00
96, 57198.13, 57203.12, 57289.44, 57264.32, 28824.81, 28835.56, 28863.79, 28856.73, 0.00, 0.00, 0.00
97, 57240.22, 57245.14, 57331.55, 57306.65, 28805.09, 28816.11, 28844.28, 28837.19, 0.00, 0.00, 0.00
98, 57032.33, 57037.65, 57124.08, 57099.18, 28906.28, 28917.12, 28944.97, 28938.24, -0.10, 0.24, 0.93
99, 56964.09, 56969.30, 57055.55, 57030.50, 28929.15, 28939.70, 28967.97, 28961.06, 0.00, 0.00, 0.00
100, 57152.09, 57157.16, 57243.38, 57218.45, 28830.49, 28841.37, 28869.31, 28862.52, 0.00, 0.00, 0.00
101, 57251.80, 57256.70, 57343.15, 57318.21, 28804.02, 28814.66, 28842.80, 28835.87, 0.00, 0.00, 0.00
102, 57076.77, 57082.53, 57168.65, 57143.33, 28898.86, 28909.66, 28937.93, 28930.98, 0.00, 0.00, 0.00
103, 56964.16, 56969.43, 57055.82, 57030.45, 28959.97, 28970.97, 28998.86, 28992.04, 0.00, 0.00, 0.00
104, 57125.83, 57130.63, 57217.13, 57191.83, 28880.78, 28892.00, 28920.16, 28913.12, 0.00, 0.00, 0.00
105, 57267.83, 57272.86, 57359.13, 57333.96, 28815.91, 28827.00, 28855.41, 28848.21, 0.00, 0.00, 0.00
106, 57121.18, 57126.48, 57212.91, 57187.63, 28899.66, 28910.62, 28938.74, 28932.01, 0.00, 0.00, 0.00
107, 56963.04, 56968.31, 57054.70, 57029.34, 28983.95, 28994.75, 29022.82, 29016.23, 0.00, 0.00, 0.00
108, 57066.57, 57072.09, 57158.17, 57133.20, 28915.76, 28926.46, 28954.78, 28947.77, -0.11, 0.28, 0.96
109, 57241.81, 57247.02, 57333.36, 57308.08, 28847.52, 28857.98, 28886.23, 28879.30, 0.00, 0.00, 0.00
110, 57149.70, 57154.50, 57241.39, 57215.86, 28903.44, 28914.06, 28942.24, 28935.09, 0.00, 0.00, 0.00
111, 56961.50, 56966.73, 57053.45, 57027.97, 28979.19, 28990.30, 29018.08, 29011.36, 0.00, 0.00, 0.00
112, 57034.81, 57039.82, 57126.45, 57101.17, 28939.34, 28950.13, 28978.34, 28971.32, 0.00, 0.00, 0.00
113, 57224.13, 57229.07, 57315.41, 57290.45, 28851.81, 28862.79, 28891.15, 28884.11, 0.00, 0.00, 0.00
114, 57185.44, 57190.73, 57276.95, 57251.80, 28899.33, 28910.68, 28938.85, 28931.94, 0.00, 0.00, 0.00
115, 56992.10, 56997.68, 57083.76, 57058.50, 28996.98, 29008.32, 29036.28, 29029.57, 0.00, 0.00, 0.00
116, 57009.29, 57014.63, 57101.11, 57075.91, 28986.32, 28997.16, 29025.17, 29018.55, 0.00, 0.00, 0.00
117, 57208.30, 57213.49, 57299.72, 57274.84, 28895.69, 28906.37, 28934.42, 28927.43, 0.00, 0.00, 0.00
118, 57209.98, 57214.94, 57301.06, 57276.37, 28885.40, 28895.87, 28924.34, 28917.10, -0.14, 0.37, 0.92
119, 57020.53, 57025.91, 57111.86, 57086.80, 28978.14, 28989.16, 29017.55, 29010.35, 0.00, 0.00, 0.00
120, 56988.09, 56993.55, 57079.74, 57054.19, 28991.49, 29002.82, 29030.98, 29023.96, 0.00, 0.00, 0.00
121, 57172.41, 57177.64, 57263.56, 57238.55, 28904.34, 28915.09, 28943.50, 28936.54, 0.00, 0.00, 0.00
122, 57233.72, 57238.77, 57324.91, 57300.10, 28869.45, 28879.97, 28908.43, 28901.61, 0.00, 0.00, 0.00
123, 57065.84, 57071.02, 57157.16, 57132.18, 28942.18, 28952.64, 28981.18, 28974.32, 0.00, 0.00, 0.00
124, 56968.76, 56973.90, 57060.27, 57034.92, 28968.26, 28978.79, 29007.18, 29000.45, 0.00, 0.00, 0.00
125, 57123.14, 57128.02, 57214.34, 57189.20, 28889.88, 28900.67, 28929.13, 28921.90, 0.00, 0.00, 0.00
126, 57229.25, 57234.39, 57320.67, 57295.48, 28840.14, 28850.80, 28879.53, 28872.78, 0.00, 0.00, 0.00
127, 57084.36, 57089.66, 57175.94, 57150.91, 28895.91, 28906.57, 28935.34, 28928.25, 0.00, 0.00, 0.00
128, 56961.83, 56967.20, 57053.50, 57028.11, 28933.06, 28944.03, 28972.06, 28965.31, 0.00, 0.00, 0.00
129, 57084.74, 57089.91, 57176.12, 57150.79, 28870.47, 28881.63, 28908.92, 28902.17, -0.20, 0.44, 0.87
130, 57236.45, 57241.14, 57327.82, 57302.56, 28811.53, 28822.48, 28850.36, 28843.47, 0.00, 0.00, 0.00
131, 57132.46, 57137.63, 57224.15, 57199.07, 28867.25, 28878.05, 28906.01, 28899.26, 0.00, 0.00, 0.00
132, 56977.10, 56982.44, 57068.70, 57043.82, 28949.78, 28960.66, 28988.69, 28982.12, 0.00, 0.00, 0.00
133, 57070.21, 57075.16, 57161.66, 57136.36, 28915.42, 28926.49, 28954.74, 28948.10, 0.00, 0.00, 0.00
134, 57227.59, 57232.73, 57319.04, 57293.91, 28843.25, 28854.16, 28882.79, 28875.75, 0.00, 0.00, 0.00
135, 57140.47, 57145.61, 57231.93, 57206.52, 28887.59, 28898.64, 28927.09, 28920.18, 0.00, 0.00, 0.00
136, 56951.53, 56956.91, 57043.10, 57017.46, 28962.18, 28972.84, 29001.03, 28994.73, 0.00, 0.00, 0.00
137, 56992.43, 56997.57, 57083.63, 57058.35, 28935.20, 28946.11, 28974.41, 28967.50, 0.00, 0.00, 0.00
138, 57181.88, 57186.91, 57273.04, 57248.20, 28845.44, 28856.23, 28884.62, 28877.74, 0.00, 0.00, 0.00
139, 57161.86, 57166.64, 57253.12, 57228.13, 28860.66, 28871.19, 28899.78, 28893.12, -0.34, 0.63, 0.75
140, 56967.49, 56972.34, 57059.04, 57033.43, 28977.43, 28988.15, 29016.65, 29009.86, 0.00, 0.00, 0.00
141, 56888.41, 56893.75, 56979.91, 56954.39, 29026.33, 29037.29, 29065.85, 29058.63, 0.00, 0.00, 0.00
142, 57011.41, 57016.53, 57102.58, 57077.23, 28959.43, 28970.12, 28998.73, 28991.66, 0.00, 0.00, 0.00
143, 56989.91, 56994.89, 57081.59, 57055.87, 28955.07, 28966.05, 28994.66, 28987.64, 0.00, 0.00, 0.00
144, 56643.74, 56649.24, 56735.95, 56709.61, 29105.84, 29117.04, 29145.45, 29138.54, 0.00, 0.00, 0.00
145, 56375.14, 56380.89, 56467.32, 56441.08, 29210.20, 29221.40, 29249.54, 29242.90, 0.00, 0.00, 0.00
146, 56187.01, 56192.93, 56279.16, 56252.54, 29279.49, 29290.60, 29318.67, 29312.37, 0.00, 0.00, 0.00
147, 56444.14, 56449.64, 56535.52, 56509.79, 29115.36, 29126.11, 29154.74, 29147.99, 0.00, 0.00, 0.00
148, 56417.41, 56422.64, 56508.74, 56482.95, 29117.37, 29128.03, 29156.58, 29149.67, 0.00, 0.00, 0.00
149, 56288.22, 56293.78, 56379.90, 56354.18, 29185.10, 29195.58, 29223.90, 29217.17, -0.12, 0.59, 0.77
150, 56439.36, 56444.70, 56530.60, 56505.07, 29112.45, 29122.96, 29151.39, 29144.71, 0.00, 0.00, 0.00
151, 56553.13, 56558.56, 56644.37, 56619.25, 29067.12, 29077.83, 29106.20, 29099.76, 0.00, 0.00, 0.00
152, 56421.99, 56427.27, 56513.59, 56488.20, 29137.76, 29148.75, 29176.71, 29170.28, 0.00, 0.00, 0.00
153, 56479.48, 56484.84, 56571.21, 56546.25, 29176.49, 29187.49, 29215.61, 29208.97, 0.00, 0.00, 0.00
154, 56589.18, 56594.57, 56681.07, 56656.04, 29119.09, 29130.20, 29158.36, 29151.57, 0.00, 0.00, 0.00
155, 56550.83, 56555.97, 56642.54, 56617.10, 29072.62, 29083.60, 29112.03, 29104.88, 0.00, 0.00, 0.00
156, 56368.48, 56373.80, 56460.04, 56434.49, 29150.90, 29161.92, 29189.95, 29183.24, 0.00, 0.00, 0.00
157, 56317.59, 56323.18, 56409.21, 56383.68, 29157.71, 29169.00, 29197.10, 29190.66, 0.00, 0.00, 0.00
158, 56431.09, 56436.72, 56522.53, 56497.45, 29098.93, 29109.66, 29138.40, 29131.54, 0.00, 0.00, 0.00
159, 56596.96, 56602.53, 56688.20, 56663.32, 29013.77, 29024.48, 29052.82, 29046.18, -0.09, 0.59, 0.78
160, 56548.48, 56553.96, 56639.83, 56614.55, 29021.35, 29032.54, 29060.73, 29053.85, 0.00, 0.00, 0.00
161, 56424.25, 56429.39, 56515.76, 56490.12, 29064.49, 29075.69, 29103.67, 29097.05, 0.00, 0.00, 0.00
162, 56471.46, 56476.98, 56563.08, 56537.53, 29036.35, 29046.96, 29075.01, 29068.51, 0.00, 0.00, 0.00
163, 56588.56, 56594.08, 56679.91, 56654.52, 28979.88, 28990.41, 29018.62, 29011.80, 0.00, 0.00, 0.00
164, 56539.83, 56544.95, 56631.00, 56605.72, 29003.04, 29013.84, 29042.09, 29034.89, 0.00, 0.00, 0.00
165, 56415.15, 56420.47, 56506.41, 56481.22, 29081.34, 29092.18, 29120.43, 29113.73, 0.00, 0.00, 0.00
166, 56413.36, 56418.77, 56504.67, 56479.21, 29096.85, 29107.80, 29135.95, 29129.11, 0.00, 0.00, 0.00
167, 56475.14, 56480.38, 56566.47, 56541.29, 29069.31, 29080.04, 29108.52, 29101.50, 0.00, 0.00, 0.00
168, 56423.67, 56428.72, 56515.07, 56489.65, 29075.89, 29087.13, 29115.40, 29108.47, 0.00, 0.00, 0.00
169, 56300.55, 56305.45, 56391.75, 56366.20, 29125.26, 29136.01, 29164.42, 29157.58, -0.08, 0.53, 0.79
170, 56288.53, 56293.67, 56379.88, 56354.18, 29130.76, 29141.26, 29169.94, 29162.95, 0.00, 0.00, 0.00
171, 56356.26, 56361.78, 56447.96, 56422.15, 29094.01, 29105.28, 29133.51, 29126.49, 0.00, 0.00, 0.00
172, 56339.80, 56345.21, 56431.63, 56406.05, 29115.67, 29126.63, 29154.79, 29147.86, 0.00, 0.00, 0.00
173, 56243.76, 56249.14, 56335.76, 56309.94, 29168.04, 29178.86, 29207.11, 29200.29, 0.00, 0.00, 0.00
174, 56215.51, 56221.03, 56307.21, 56281.27, 29170.54, 29181.19, 29209.66, 29202.91, 0.00, 0.00, 0.00
175, 56292.64, 56298.07, 56384.13, 56358.31, 29134.80, 29145.36, 29173.67, 29167.30, 0.00, 0.00, 0.00
176, 56371.21, 56376.71, 56462.76, 56436.88, 29091.51, 29102.10, 29130.29, 29123.85, 0.00, 0.00, 0.00
177, 56363.25, 56368.55, 56454.56, 56429.12, 29098.75, 29109.41, 29137.87, 29131.01, 0.00, 0.00, 0.00
178, 56321.79, 56326.93, 56413.10, 56387.77, 29117.37, 29128.64, 29156.51, 29150.03, 0.00, 0.00, 0.00
179, 56347.43, 56352.37, 56438.73, 56413.14, 29113.73, 29124.77, 29152.84, 29146.16, 0.00, 0.00, 0.00
180, 56266.78, 56272.10, 56358.18, 56332.94, 29167.08, 29177.99, 29206.15, 29199.45, -0.08, 0.46, 0.90
181, 56127.39, 56132.96, 56218.68, 56193.20, 29231.19, 29242.16, 29270.26, 29263.78, 0.00, 0.00, 0.00
182, 56085.31, 56090.88, 56176.59, 56150.84, 29253.63, 29264.67, 29292.77, 29286.21, 0.00, 0.00, 0.00
183, 56141.05, 56146.64, 56232.45, 56206.93, 29235.99, 29246.65, 29274.95, 29268.33, 0.00, 0.00, 0.00
184, 56284.77, 56289.78, 56375.77, 56350.18, 29173.45, 29184.20, 29212.59, 29205.66, 0.00, 0.00, 0.00
185, 56245.57, 56250.98, 56336.45, 56311.13, 29207.22, 29218.15, 29246.34, 29239.59, 0.00, 0.00, 0.00
186, 56205.65, 56211.15, 56296.82, 56271.03, 29229.82, 29240.69, 29268.92, 29262.10, 0.00, 0.00, 0.00
187, 56184.97, 56190.56, 56276.41, 56250.80, 29248.84, 29259.84, 29288.16, 29281.52, 0.00, 0.00, 0.00
188, 56312.45, 56317.72, 56403.71, 56378.34, 29182.30, 29193.14, 29221.26, 29214.78, 0.00, 0.00, 0.00
189, 56320.00, 56325.12, 56411.24, 56385.71, 29175.64, 29186.44, 29214.73, 29208.14, 0.00, 0.00, 0.00
190, 56220.09, 56225.23, 56311.20, 56286.03, 29230.54, 29241.80, 29270.01, 29263.04, -0.18, 0.42, 0.86
191, 56213.92, 56219.24, 56305.14, 56279.75, 29222.71, 29233.78, 29262.19, 29254.92, 0.00, 0.00, 0.00
192, 56157.41, 56162.91, 56248.63, 56223.11, 29231.99, 29242.61, 29270.95, 29264.38, 0.00, 0.00, 0.00
193, 56205.23, 56210.72, 56296.44, 56270.92, 29198.55, 29209.28, 29237.51, 29230.89, 0.00, 0.00, 0.00
194, 56268.01, 56273.49, 56359.30, 56333.95, 29161.02, 29171.62, 29200.05, 29193.54, 0.00, 0.00, 0.00
195, 56312.89, 56318.21, 56404.25, 56378.77, 29137.93, 29148.44, 29177.14, 29170.25, 0.00, 0.00, 0.00
196, 56308.42, 56313.77, 56399.73, 56374.38, 29148.13, 29158.95, 29187.31, 29180.51, 0.00, 0.00, 0.00
197, 56316.40, 56321.88, 56407.40, 56382.25, 29137.93, 29148.71, 29176.69, 29170.28, 0.00, 0.00, 0.00
198, 56430.46, 56435.89, 56521.57, 56496.29, 29072.58, 29083.40, 29111.63, 29104.76, 0.00, 0.00, 0.00
199, 56527.61, 56533.08, 56618.84, 56593.41, 29020.97, 29031.83, 29059.97, 29052.93, 0.00, 0.00, 0.00
200, 56622.64, 56627.98, 56713.73, 56688.56, 29003.02, 29013.86, 29041.73, 29035.16, -0.34, 0.42, 0.80
201, 56611.22, 56616.59, 56702.39, 56677.50, 29037.40, 29048.13, 29076.38, 29069.56, 0.00, 0.00, 0.00
202, 56463.79, 56469.27, 56555.25, 56529.91, 29116.37, 29127.07, 29155.30, 29148.60, 0.00, 0.00, 0.00
203, 56380.91, 56386.36, 56472.29, 56447.00, 29156.13, 29167.26, 29195.24, 29188.85, 0.00, 0.00, 0.00
204, 56425.19, 56430.15, 56516.07, 56491.04, 29134.80, 29146.03, 29174.14, 29167.55, 0.00, 0.00, 0.00
205, 56451.68, 56456.55, 56542.65, 56517.55, 29124.46, 29135.25, 29163.62, 29157.00, 0.00, 0.00, 0.00
206, 56382.86, 56388.11, 56474.32, 56448.79, 29144.86, 29155.73, 29184.09, 29177.50, 0.00, 0.00, 0.00
207, 56333.73, 56339.31, 56425.28, 56399.91, 29163.64, 29174.57, 29202.58, 29195.89, 0.00, 0.00, 0.00
208, 56400.85, 56406.04, 56491.89, 56466.83, 29138.96, 29149.71, 29178.08, 29171.06, 0.00, 0.00, 0.00
209, 56494.70, 56499.91, 56585.81, 56560.77, 29091.69, 29102.30, 29131.01, 29123.76, 0.00, 0.00, 0.00
210, 56607.11, 56612.36, 56698.08, 56673.14, 29041.46, 29052.33, 29081.09, 29073.88, -0.22, 0.33, 0.78
211, 56681.70, 56686.66, 56772.87, 56747.95, 29002.75, 29013.50, 29042.07, 29035.09, 0.00, 0.00, 0.00
212, 56764.73, 56769.83, 56856.09, 56830.89, 28963.08, 28973.54, 29002.19, 28995.15, 0.00, 0.00, 0.00
213, 56862.46, 56867.39, 56953.32, 56928.28, 28915.76, 28926.11, 28954.83, 28947.77, 0.00, 0.00, 0.00
214, 56846.68, 56851.57, 56937.65, 56912.66, 28925.23, 28935.81, 28964.37, 28957.38, 0.00, 0.00, 0.00
215, 56786.37, 56791.33, 56877.45, 56852.66, 28948.01, 28958.38, 28986.93, 28979.73, 0.00, 0.00, 0.00
216, 56810.15, 56815.20, 56901.55, 56875.93, 28915.54, 28925.91, 28954.52, 28947.59, 0.00, 0.00, 0.00
217, 56889.68, 56895.02, 56981.05, 56955.71, 28891.19, 28901.61, 28930.09, 28923.25, 0.00, 0.00, 0.00
218, 56885.46, 56890.75, 56976.67, 56951.48, 28915.45, 28925.99, 28954.31, 28947.27, 0.00, 0.00, 0.00
219, 56828.37, 56833.62, 56919.90, 56894.48, 28961.80, 28972.67, 29001.21, 28994.06, 0.00, 0.00, 0.00
220, 56831.43, 56836.77, 56922.92, 56897.73, 28965.83, 28976.55, 29005.32, 28998.04, 0.00, 0.00, 0.00
221, 56899.34, 56904.59, 56990.55, 56965.68, 28929.97, 28940.66, 28969.40, 28962.18, -0.21, 0.34, 0.83
222, 56912.14, 56917.33, 57003.56, 56978.51, 28921.99, 28932.50, 28960.89, 28954.11, 0.00, 0.00, 0.00
223, 56862.07, 56867.21, 56953.88, 56928.75, 28949.29, 28959.84, 28988.07, 28981.32, 0.00, 0.00, 0.00
224, 56857.76, 56862.68, 56948.98, 56923.99, 28943.32, 28953.78, 28982.23, 28975.21, 0.00, 0.00, 0.00
225, 56925.53, 56930.43, 57016.26, 56991.71, 28913.52, 28923.74, 28952.46, 28945.31, 0.00, 0.00, 0.00
226, 56951.04, 56956.45, 57042.12, 57017.53, 28889.05, 28899.17, 28927.92, 28920.92, 0.00, 0.00, 0.00
227, 56900.92, 56906.22, 56992.32, 56967.46, 28916.56, 28927.00, 28955.54, 28948.59, 0.00, 0.00, 0.00
228, 56878.91, 56884.20, 56970.21, 56945.58, 28927.00, 28937.42, 28965.80, 28958.94, 0.00, 0.00, 0.00
229, 56937.47, 56942.88, 57028.86, 57003.90, 28889.83, 28900.74, 28928.92, 28922.22, 0.00, 0.00, 0.00
230, 56985.28, 56990.75, 57076.83, 57051.73, 28875.70, 28886.23, 28914.82, 28908.05, 0.00, 0.00, 0.00
231, 56946.23, 56951.39, 57037.98, 57012.66, 28891.06, 28901.54, 28930.06, 28923.02, -0.24, 0.35, 0.86
232, 56912.99, 56918.16, 57004.46, 56979.56, 28888.94, 28899.71, 28928.12, 28921.23, 0.00, 0.00, 0.00
233, 56974.37, 56979.29, 57065.36, 57040.71, 28868.33, 28878.74, 28907.46, 28900.42, 0.00, 0.00, 0.00
234, 57031.10, 57035.88, 57122.09, 57097.21, 28846.49, 28857.08, 28885.81, 28878.47, 0.00, 0.00, 0.00
235, 56981.37, 56986.20, 57072.47, 57047.77, 28869.58, 28880.33, 28908.94, 28901.56, 0.00, 0.00, 0.00
236, 56931.97, 56936.84, 57023.30, 56998.49, 28900.74, 28911.89, 28939.99, 28933.17, 0.00, 0.00, 0.00
237, 56978.17, 56983.42, 57069.66, 57044.67, 28880.51, 28891.48, 28919.60, 28912.88, 0.00, 0.00, 0.00
238, 57038.16, 57043.37, 57129.45, 57104.59, 28849.66, 28860.26, 28888.64, 28881.60, 0.00, 0.00, 0.00
239, 57018.36, 57023.32, 57109.58, 57084.70, 28855.88, 28866.45, 28895.22, 28887.88, 0.00, 0.00, 0.00
240, 56962.66, 56967.31, 57053.92, 57028.71, 28863.05, 28873.71, 28902.30, 28895.08, 0.00, 0.00, 0.00
241, 56985.86, 56990.71, 57077.05, 57052.02, 28853.49, 28863.63, 28892.24, 28885.16, -0.25, 0.36, 0.83
242, 57051.95, 57056.76, 57142.81, 57118.00, 28836.68, 28847.16, 28875.84, 28868.75, 0.00, 0.00, 0.00
243, 57048.31, 57053.32, 57139.55, 57114.54, 28818.80, 28829.30, 28858.02, 28850.92, 0.00, 0.00, 0.00
244, 56994.64, 56999.92, 57086.31, 57061.14, 28828.56, 28838.82, 28867.52, 28860.64, 0.00, 0.00, 0.00
245, 57013.49, 57018.47, 57104.93, 57079.83, 28823.82, 28834.20, 28862.79, 28855.61, 0.00, 0.00, 0.00
246, 57080.70, 57085.77, 57171.69, 57147.24, 28824.99, 28835.56, 28863.90, 28857.06, 0.00, 0.00, 0.00
247, 57092.75, 57097.80, 57184.05, 57159.53, 28848.03, 28858.78, 28886.99, 28880.31, 0.00, 0.00, 0.00
248, 57030.23, 57035.19, 57121.63, 57096.57, 28876.51, 28886.99, 28915.62, 28908.54, 0.00, 0.00, 0.00
249, 57014.98, 57020.13, 57106.38, 57081.32, 28879.82, 28890.72, 28919.00, 28911.96, 0.00, 0.00, 0.00
250, 57071.13, 57076.14, 57162.30, 57137.70, 28848.86, 28859.41, 28887.62, 28880.53, 0.00, 0.00, 0.00
251, 57100.34, 57105.38, 57191.47, 57166.77, 28840.43, 28851.00, 28879.41, 28872.71, -0.23, 0.37, 0.83
252, 57053.68, 57058.59, 57144.87, 57120.04, 28869.58, 28880.31, 28908.70, 28901.77, 0.00, 0.00, 0.00
253, 57023.07, 57027.77, 57114.27, 57089.04, 28883.10, 28893.76, 28922.29, 28914.91, 0.00, 0.00, 0.00
254, 57078.55, 57083.00, 57169.73, 57144.73, 28861.00, 28871.39, 28899.75, 28892.74, 0.00, 0.00, 0.00
255, 57105.62, 57110.52, 57196.73, 57171.80, 28837.28, 28847.61, 28876.20, 28869.31, 0.00, 0.00, 0.00
0, 57047.86, 57053.23, 57139.17, 57114.16, 28862.02, 28872.53, 28901.01, 28893.81, 0.00, 0.00, 0.00
1, 57001.04, 57006.42, 57092.34, 57067.45, 28882.05, 28892.51, 28921.30, 28913.99, 0.00, 0.00, 0.00
2, 57044.76, 57050.10, 57135.82, 57111.05, 28854.67, 28865.09, 28893.92, 28886.79, 0.00, 0.00, 0.00
3, 57097.30, 57102.09, 57188.34, 57163.60, 28816.11, 28826.78, 28855.01, 28847.88, 0.00, 0.00, 0.00
4, 57058.77, 57064.02, 57150.46, 57125.49, 28841.73, 28852.59, 28880.33, 28874.16, 0.00, 0.00, 0.00
5, 57004.16, 57009.11, 57095.68, 57070.68, 28862.40, 28873.33, 28901.50, 28894.79, -0.10, 0.34, 0.73
6, 57040.87, 57045.74, 57132.35, 57107.45, 28855.74, 28866.74, 28895.19, 28888.22, 0.00, 0.00, 0.00
7, 57098.76, 57103.88, 57190.20, 57165.23, 28846.15, 28856.75, 28885.16, 28878.32, 0.00, 0.00, 0.00
8, 57071.78, 57076.88, 57163.27, 57138.10, 28850.76, 28861.15, 28889.70, 28882.77, 0.00, 0.00, 0.00
9, 57016.14, 57020.73, 57107.27, 57082.44, 28872.98, 28883.75, 28912.05, 28905.10, 0.00, 0.00, 0.00
10, 57026.96, 57031.88, 57118.07, 57093.59, 28857.58, 28868.21, 28896.54, 28889.56, 0.00, 0.00, 0.00
11, 57089.95, 57095.03, 57181.30, 57156.40, 28829.48, 28839.96, 28868.51, 28861.15, 0.00, 0.00, 0.00
12, 57094.54, 57099.77, 57186.06, 57160.88, 28836.41, 28846.65, 28875.30, 28867.95, 0.00, 0.00, 0.00
13, 57043.04, 57048.33, 57134.28, 57109.33, 28855.79, 28866.25, 28894.59, 28887.42, 0.00, 0.00, 0.00
14, 57046.86, 57051.75, 57137.96, 57113.09, 28844.46, 28854.94, 28883.55, 28876.33, 0.00, 0.00, 0.00
15, 57101.38, 57106.45, 57192.73, 57167.67, 28808.02, 28818.62, 28847.21, 28840.14, 0.00, 0.00, 0.00
16, 57095.72, 57101.06, 57186.78, 57162.10, 28795.77, 28806.26, 28834.67, 28827.63, -0.22, 0.42, 0.81
17, 57040.40, 57045.70, 57131.66, 57106.87, 28831.22, 28841.68, 28870.32, 28863.41, 0.00, 0.00, 0.00
18, 57022.74, 57027.70, 57114.27, 57089.06, 28855.27, 28865.96, 28894.43, 28887.68, 0.00, 0.00, 0.00
19, 57070.28, 57075.25, 57161.77, 57136.67, 28837.75, 28848.59, 28876.98, 28869.98, 0.00, 0.00, 0.00
20, 57090.82, 57095.76, 57182.06, 57157.05, 28821.08, 28831.96, 28860.21, 28852.93, 0.00, 0.00, 0.00
21, 57043.95, 57048.89, 57135.55, 57110.20, 28840.75, 28851.79, 28879.91, 28873.02, 0.00, 0.00, 0.00
22, 57019.12, 57024.28, 57110.96, 57085.41, 28847.90, 28858.58, 28887.17, 28879.88, 0.00, 0.00, 0.00
23, 57075.04, 57080.39, 57166.57, 57141.59, 28830.22, 28840.68, 28869.36, 28862.02, 0.00, 0.00, 0.00
24, 57124.53, 57129.74, 57215.93, 57191.27, 28809.79, 28820.47, 28848.57, 28841.57, 0.00, 0.00, 0.00
25, 57078.17, 57083.16, 57169.68, 57144.73, 28827.74, 28838.33, 28866.67, 28859.70, 0.00, 0.00, 0.00
26, 57038.36, 57043.28, 57129.94, 57104.70, 28837.55, 28848.12, 28876.51, 28869.76, -0.23, 0.42, 0.84
27, 57077.23, 57082.20, 57168.47, 57143.42, 28811.98, 28822.78, 28851.07, 28844.30, 0.00, 0.00, 0.00
28, 57122.77, 57127.77, 57214.29, 57189.20, 28797.74, 28808.58, 28836.74, 28829.59, 0.00, 0.00, 0.00
29, 57095.72, 57100.70, 57187.18, 57162.10, 28808.02, 28818.66, 28846.78, 28839.70, 0.00, 0.00, 0.00
30, 57049.47, 57054.79, 57141.09, 57115.66, 28823.45, 28833.66, 28862.25, 28855.23, 0.00, 0.00, 0.00
31, 57077.88, 57083.09, 57169.43, 57144.27, 28808.27, 28818.62, 28847.05, 28840.10, 0.00, 0.00, 0.00
32, 57123.34, 57128.33, 57215.10, 57189.82, 28785.43, 28795.97, 28824.38, 28817.16, 0.00, 0.00, 0.00
33, 57099.05, 57103.88, 57190.69, 57165.61, 28790.90, 28801.76, 28829.81, 28822.71, 0.00, 0.00, 0.00
34, 57045.47, 57050.28, 57136.93, 57111.86, 28820.21, 28830.87, 28859.03, 28852.26, 0.00, 0.00, 0.00
35, 57072.07, 57077.26, 57163.55, 57138.39, 28820.81, 28831.56, 28859.86, 28852.95, 0.00, 0.00, 0.00
36, 57124.57, 57129.69, 57215.79, 57190.94, 28787.88, 28798.79, 28826.93, 28819.96, -0.22, 0.42, 0.86
37, 57118.74, 57124.17, 57210.07, 57185.10, 28790.57, 28801.41, 28829.86, 28822.98, 0.00, 0.00, 0.00
38, 57064.32, 57069.57, 57155.93, 57130.57, 28806.19, 28816.79, 28845.21, 28838.49, 0.00, 0.00, 0.00
39, 57061.95, 57067.27, 57153.50, 57128.55, 28809.10, 28819.82, 28848.23, 28840.99, 0.00, 0.00, 0.00
40, 57122.99, 57128.53, 57214.27, 57189.62, 28791.79, 28802.37, 28830.53, 28823.56, 0.00, 0.00, 0.00
41, 57134.59, 57140.02, 57225.92, 57201.04, 28783.21, 28793.65, 28821.70, 28814.88, 0.00, 0.00, 0.00
42, 57076.77, 57081.91, 57168.63, 57143.37, 28802.30, 28812.78, 28841.17, 28834.00, 0.00, 0.00, 0.00
43, 57057.09, 57062.13, 57148.78, 57123.55, 28812.18, 28822.89, 28851.21, 28844.23, 0.00, 0.00, 0.00
44, 57116.48, 57121.85, 57207.90, 57183.09, 28794.70, 28805.21, 28833.55, 28826.71, 0.00, 0.00, 0.00
45, 57141.27, 57146.79, 57232.80, 57208.04, 28784.75, 28795.17, 28823.78, 28816.83, 0.00, 0.00, 0.00
46, 57086.71, 57091.74, 57178.22, 57153.36, 28813.81, 28824.29, 28852.95, 28845.75, -0.19, 0.41, 0.85
47, 57050.34, 57055.31, 57142.12, 57116.68, 28832.16, 28843.05, 28871.61, 28864.68, 0.00, 0.00, 0.00
48, 57100.41, 57105.38, 57191.99, 57167.04, 28805.05, 28815.60, 28844.21, 28837.15, 0.00, 0.00, 0.00
49, 57134.99, 57140.18, 57226.79, 57201.98, 28771.75, 28782.21, 28810.59, 28803.37, 0.00, 0.00, 0.00
50, 57086.87, 57092.10, 57178.62, 57153.50, 28791.26, 28801.63, 28830.13, 28822.91, 0.00, 0.00, 0.00
51, 57052.80, 57057.79, 57144.42, 57119.19, 28808.34, 28818.86, 28847.36, 28840.48, 0.00, 0.00, 0.00
52, 57097.30, 57102.45, 57188.61, 57163.89, 28781.07, 28791.39, 28820.07, 28813.25, 0.00, 0.00, 0.00
53, 57154.84, 57160.09, 57245.95, 57221.43, 28752.79, 28763.36, 28791.93, 28784.93, 0.00, 0.00, 0.00
54, 57121.27, 57126.43, 57212.68, 57187.81, 28776.17, 28786.54, 28815.06, 28808.07, 0.00, 0.00, 0.00
55, 57053.27, 57058.39, 57144.89, 57120.13, 28799.24, 28809.77, 28838.40, 28831.25, 0.00, 0.00, 0.00
56, 57068.72, 57073.84, 57160.02, 57135.26, 28802.28, 28813.07, 28841.28, 28834.69, -0.17, 0.39, 0.87
57, 57121.54, 57126.56, 57212.93, 57187.88, 28777.85, 28788.55, 28816.87, 28810.15, 0.00, 0.00, 0.00
58, 57113.20, 57118.36, 57204.91, 57179.63, 28777.71, 28788.13, 28816.47, 28809.56, 0.00, 0.00, 0.00
59, 57051.42, 57056.67, 57143.08, 57117.91, 28806.01, 28816.52, 28844.86, 28837.71, 0.00, 0.00, 0.00
60, 57050.93, 57055.91, 57142.50, 57117.15, 28807.64, 28817.90, 28846.31, 28839.07, 0.00, 0.00, 0.00
61, 57099.45, 57104.66, 57190.98, 57165.79, 28770.34, 28780.62, 28808.83, 28801.96, 0.00, 0.00, 0.00
62, 57099.45, 57104.55, 57190.76, 57165.95, 28761.91, 28772.57, 28800.91, 28793.70, 0.00, 0.00, 0.00
63, 57042.57, 57047.71, 57134.16, 57108.84, 28786.45, 28797.45, 28825.72, 28818.97, 0.00, 0.00, 0.00
64, 57041.45, 57046.75, 57133.09, 57107.74, 28793.54, 28804.33, 28832.36, 28825.66, 0.00, 0.00, 0.00
65, 57100.05, 57105.31, 57191.70, 57166.57, 28772.55, 28783.14, 28811.53, 28804.56, 0.00, 0.00, 0.00
66, 57118.74, 57123.95, 57210.47, 57185.62, 28768.79, 28779.46, 28808.11, 28800.89, 0.00, 0.00, 0.00
67, 57067.13, 57072.29, 57158.46, 57133.65, 28792.91, 28803.37, 28831.92, 28824.76, -0.16, 0.39, 0.88
68, 57049.90, 57055.11, 57141.25, 57116.13, 28802.37, 28812.69, 28841.04, 28834.29, 0.00, 0.00, 0.00
69, 57098.38, 57103.56, 57189.91, 57164.81, 28772.62, 28782.88, 28811.49, 28804.42, 0.00, 0.00, 0.00
70, 57127.28, 57132.40, 57218.74, 57193.78, 28751.85, 28762.07, 28790.43, 28783.53, 0.00, 0.00, 0.00
71, 57071.11, 57075.89, 57162.30, 57137.07, 28774.03, 28784.82, 28812.92, 28805.94, 0.00, 0.00, 0.00
72, 57041.11, 57046.41, 57132.58, 57107.27, 28798.46, 28809.14, 28837.17, 28830.53, 0.00, 0.00, 0.00
73, 57084.66, 57089.82, 57176.30, 57150.93, 28797.72, 28808.25, 28836.45, 28829.73, 0.00, 0.00, 0.00
74, 57126.83, 57132.53, 57218.63, 57193.44, 28773.29, 28783.50, 28812.07, 28805.12, 0.00, 0.00, 0.00
75, 57084.68, 57090.13, 57176.18, 57151.42, 28776.69, 28787.26, 28815.49, 28808.45, 0.00, 0.00, 0.00
76, 57037.09, 57042.05, 57128.40, 57103.43, 28804.07, 28814.19, 28842.67, 28835.56, 0.00, 0.00, 0.00
77, 57064.61, 57069.59, 57156.14, 57130.90, 28799.64, 28809.79, 28838.42, 28831.25, -0.15, 0.39, 0.90
78, 57117.33, 57122.72, 57209.06, 57183.94, 28789.78, 28800.27, 28828.59, 28821.37, 0.00, 0.00, 0.00
79, 57085.82, 57091.09, 57177.48, 57152.22, 28804.78, 28815.33, 28843.52, 28836.57, 0.00, 0.00, 0.00
80, 57037.49, 57042.81, 57128.84, 57103.99, 28811.33, 28822.21, 28850.40, 28843.61, 0.00, 0.00, 0.00
81, 57061.16, 57066.30, 57152.27, 57127.39, 28799.95, 28810.39, 28838.91, 28832.07, 0.00, 0.00, 0.00
82, 57109.06, 57114.00, 57200.44, 57175.16, 28772.24, 28782.65, 28810.93, 28804.16, 0.00, 0.00, 0.00
83, 57090.27, 57095.14, 57181.48, 57156.18, 28785.74, 28796.67, 28824.45, 28817.77, 0.00, 0.00, 0.00
84, 57030.30, 57035.30, 57121.58, 57096.68, 28811.58, 28822.46, 28850.51, 28843.72, 0.00, 0.00, 0.00
85, 57037.49, 57042.70, 57129.09, 57104.12, 28802.57, 28813.59, 28841.64, 28834.73, 0.00, 0.00, 0.00
86, 57096.43, 57101.35, 57187.65, 57162.59, 28773.04, 28783.30, 28811.58, 28804.65, 0.00, 0.00, 0.00
87, 57103.07, 57108.50, 57194.49, 57169.46, 28768.37, 28778.63, 28806.95, 28800.02, -0.16, 0.38, 0.91
88, 57056.49, 57061.95, 57148.22, 57122.96, 28791.15, 28801.61, 28829.86, 28822.93, 0.00, 0.00, 0.00
89, 57047.48, 57052.69, 57139.46, 57113.87, 28795.64, 28806.35, 28834.35, 28827.56, 0.00, 0.00, 0.00
90, 57095.25, 57100.57, 57186.89, 57161.57, 28774.36, 28785.27, 28813.28, 28806.12, 0.00, 0.00, 0.00
91, 57105.22, 57110.34, 57196.57, 57171.60, 28763.36, 28774.29, 28802.35, 28794.97, 0.00, 0.00, 0.00
92, 57056.92, 57061.95, 57148.00, 57123.21, 28778.05, 28788.71, 28816.90, 28809.86, 0.00, 0.00, 0.00
93, 57037.54, 57042.90, 57129.13, 57104.14, 28779.81, 28790.25, 28818.39, 28811.64, 0.00, 0.00, 0.00
94, 57086.84, 57091.96, 57178.49, 57153.48, 28766.52, 28777.42, 28805.90, 28798.79, 0.00, 0.00, 0.00
95, 57098.22, 57103.52, 57189.71, 57164.52, 28763.59, 28774.54, 28803.04, 28795.88, 0.00, 0.00, 0.00
96, 57048.04, 57053.16, 57139.39, 57114.27, 28767.70, 28778.45, 28806.68, 28799.84, 0.00, 0.00, 0.00
97, 57018.05, 57023.34, 57109.42, 57084.59, 28778.96, 28790.01, 28818.48, 28811.35, -0.18, 0.38, 0.91
98, 57068.25, 57073.37, 57159.53, 57134.50, 28773.71, 28784.49, 28812.87, 28805.52, 0.00, 0.00, 0.00
99, 57121.80, 57126.88, 57213.07, 57187.85, 28768.39, 28779.03, 28807.20, 28800.29, 0.00, 0.00, 0.00
100, 57081.23, 57086.44, 57172.96, 57147.46, 28778.92, 28789.67, 28817.83, 28811.17, 0.00, 0.00, 0.00
101, 57031.95, 57037.31, 57123.64, 57098.09, 28795.24, 28806.12, 28834.17, 28827.51, 0.00, 0.00, 0.00
102, 57065.48, 57070.42, 57156.98, 57131.70, 28776.55, 28787.30, 28815.29, 28808.47, 0.00, 0.00, 0.00
103, 57118.25, 57123.10, 57209.58, 57184.46, 28757.69, 28768.39, 28796.44, 28789.63, 0.00, 0.00, 0.00
104, 57097.93, 57102.80, 57189.21, 57164.54, 28764.48, 28775.08, 28803.28, 28796.42, 0.00, 0.00, 0.00
105, 57041.89, 57046.68, 57133.31, 57108.06, 28780.96, 28791.33, 28819.78, 28812.52, 0.00, 0.00, 0.00
106, 57052.76, 57057.41, 57144.22, 57118.56, 28773.71, 28784.15, 28812.61, 28805.43, 0.00, 0.00, 0.00
107, 57108.44, 57113.24, 57199.79, 57174.57, 28768.93, 28779.61, 28807.62, 28800.78, 0.00, 0.00, 0.00
108, 57098.96, 57104.21, 57190.38, 57165.16, 28770.20, 28780.66, 28808.89, 28801.99, -0.20, 0.37, 0.90
109, 57043.28, 57048.76, 57134.61, 57109.46, 28779.23, 28789.92, 28818.19, 28810.91, 0.00, 0.00, 0.00
110, 57045.88, 57051.06, 57137.29, 57112.24, 28763.25, 28773.94, 28802.03, 28794.92, 0.00, 0.00, 0.00
111, 57106.11, 57111.19, 57197.57, 57172.72, 28743.07, 28753.26, 28781.80, 28774.63, 0.00, 0.00, 0.00
112, 57114.20, 57119.61, 57205.62, 57180.90, 28746.31, 28756.79, 28785.34, 28778.18, 0.00, 0.00, 0.00
113, 57052.85, 57058.28, 57144.45, 57119.64, 28767.43, 28778.00, 28806.28, 28799.17, 0.00, 0.00, 0.00
114, 57028.29, 57033.36, 57119.79, 57094.96, 28770.74, 28781.63, 28809.95, 28802.75, 0.00, 0.00, 0.00
115, 57074.73, 57079.85, 57166.21, 57141.07, 28750.31, 28760.88, 28789.38, 28782.23, 0.00, 0.00, 0.00
116, 57103.30, 57108.44, 57195.23, 57169.79, 28739.16, 28749.64, 28778.14, 28771.01, 0.00, 0.00, 0.00
117, 57065.63, 57070.57, 57157.50, 57131.97, 28762.20, 28772.80, 28801.16, 28793.96, 0.00, 0.00, 0.00
118, 57037.56, 57042.50, 57129.09, 57103.81, 28771.37, 28781.65, 28809.97, 28803.22, -0.21, 0.36, 0.88
119, 57082.98, 57088.03, 57174.48, 57149.59, 28745.73, 28756.28, 28784.58, 28777.74, 0.00, 0.00, 0.00
120, 57109.84, 57115.30, 57201.73, 57176.79, 28734.33, 28745.10, 28773.27, 28765.93, 0.00, 0.00, 0.00
121, 57067.18, 57072.45, 57158.80, 57133.71, 28750.80, 28761.40, 28789.65, 28782.72, 0.00, 0.00, 0.00
122, 57028.82, 57034.03, 57120.15, 57095.20, 28764.71, 28775.32, 28803.78, 28796.89, 0.00, 0.00, 0.00
123, 57080.52, 57085.59, 57171.96, 57146.95, 28755.65, 28766.49, 28794.75, 28788.02, 0.00, 0.00, 0.00
124, 57122.77, 57127.77, 57214.34, 57189.20, 28731.27, 28741.77, 28769.94, 28763.36, 0.00, 0.00, 0.00
125, 57081.30, 57086.78, 57172.95, 57148.00, 28740.41, 28750.89, 28779.12, 28772.30, 0.00, 0.00, 0.00
126, 57037.63, 57043.01, 57129.13, 57104.35, 28755.54, 28766.16, 28794.43, 28787.44, 0.00, 0.00, 0.00
127, 57059.33, 57064.43, 57150.73, 57125.69, 28749.44, 28759.74, 28788.02, 28781.13, 0.00, 0.00, 0.00
128, 57106.20, 57111.48, 57197.82, 57172.95, 28736.32, 28747.09, 28775.12, 28767.99, -0.22, 0.38, 0.89
129, 57079.91, 57084.92, 57171.65, 57146.50, 28754.42, 28764.97, 28793.14, 28786.19, 0.00, 0.00, 0.00
130, 57039.79, 57044.69, 57131.26, 57106.20, 28768.44, 28778.85, 28806.57, 28800.29, 0.00, 0.00, 0.00
131, 57058.77, 57063.67, 57150.32, 57125.20, 28759.29, 28769.64, 28797.96, 28791.19, 0.00, 0.00, 0.00
132, 57113.36, 57118.18, 57205.09, 57180.05, 28733.95, 28744.48, 28772.46, 28765.89, 0.00, 0.00, 0.00
133, 57099.86, 57104.86, 57191.70, 57166.60, 28732.12, 28742.51, 28770.96, 28763.97, 0.00, 0.00, 0.00
134, 57043.55, 57048.76, 57135.15, 57110.11, 28751.29, 28762.09, 28790.57, 28783.55, 0.00, 0.00, 0.00
135, 57040.06, 57045.05, 57131.64, 57106.31, 28751.90, 28762.54, 28790.97, 28783.93, 0.00, 0.00, 0.00
136, 57093.98, 57098.63, 57185.24, 57160.00, 28723.42, 28734.28, 28762.11, 28754.98, 0.00, 0.00, 0.00
137, 57099.45, 57104.39, 57190.94, 57165.81, 28712.74, 28723.06, 28751.36, 28744.30, 0.00, 0.00, 0.00
138, 57057.79, 57062.57, 57149.03, 57124.08, 28728.27, 28738.75, 28766.96, 28759.70, -0.21, 0.38, 0.89
139, 57043.97, 57049.14, 57135.46, 57110.52, 28741.77, 28752.46, 28780.82, 28773.47, 0.00, 0.00, 0.00
140, 57095.88, 57100.68, 57187.36, 57162.53, 28730.04, 28740.90, 28769.06, 28761.96, 0.00, 0.00, 0.00
141, 57123.95, 57128.80, 57215.28, 57190.25, 28720.27, 28731.18, 28759.34, 28752.19, 0.00, 0.00, 0.00
142, 57072.94, 57077.93, 57164.54, 57139.15, 28723.51, 28734.26, 28762.29, 28755.54, 0.00, 0.00, 0.00
143, 57043.33, 57048.64, 57135.28, 57109.89, 28727.94, 28738.55, 28766.72, 28759.85, 0.00, 0.00, 0.00
144, 57087.67, 57092.86, 57179.38, 57154.26, 28718.48, 28729.28, 28757.40, 28750.45, 0.00, 0.00, 0.00
145, 57125.65, 57130.59, 57217.18, 57191.99, 28726.77, 28737.48, 28765.73, 28758.67, 0.00, 0.00, 0.00
146, 57079.40, 57084.36, 57170.84, 57145.79, 28746.33, 28756.93, 28785.22, 28778.23, 0.00, 0.00, 0.00
147, 57035.91, 57040.98, 57127.55, 57102.54, 28766.13, 28776.69, 28804.98, 28798.08, 0.00, 0.00, 0.00
148, 57073.90, 57078.93, 57165.32, 57140.18, 28744.81, 28755.27, 28783.35, 28776.53, -0.19, 0.37, 0.90
149, 57117.63, 57123.17, 57209.46, 57184.52, 28712.45, 28722.82, 28751.29, 28744.28, 0.00, 0.00, 0.00
150, 57094.38, 57100.19, 57186.33, 57161.07, 28719.04, 28729.30, 28757.66, 28750.91, 0.00, 0.00, 0.00
151, 57027.55, 57033.04, 57119.21, 57093.86, 28742.13, 28752.63, 28780.66, 28773.91, 0.00, 0.00, 0.00
152, 57067.11, 57072.63, 57158.86, 57133.61, 28733.59, 28744.25, 28772.48, 28765.42, 0.00, 0.00, 0.00
153, 57128.98, 57134.05, 57220.38, 57195.41, 28706.41, 28717.30, 28745.57, 28738.60, 0.00, 0.00, 0.00
154, 57102.34, 57107.27, 57193.66, 57168.43, 28710.61, 28721.23, 28749.62, 28742.67, 0.00, 0.00, 0.00
155, 57044.15, 57049.56, 57135.86, 57110.58, 28741.79, 28752.34, 28780.80, 28773.71, 0.00, 0.00, 0.00
156, 57054.79, 57060.11, 57146.26, 57121.18, 28732.14, 28742.58, 28771.03, 28763.92, 0.00, 0.00, 0.00
157, 57107.83, 57113.24, 57199.65, 57174.35, 28707.57, 28718.10, 28746.55, 28739.38, 0.00, 0.00, 0.00
158, 57096.34, 57101.66, 57188.21, 57162.62, 28701.29, 28712.02, 28739.94, 28733.01, 0.00, 0.00, 0.00
159, 57050.10, 57055.35, 57141.81, 57116.42, 28724.31, 28735.02, 28762.85, 28755.70, -0.16, 0.36, 0.90
160, 57063.15, 57068.76, 57155.24, 57129.94, 28731.06, 28741.30, 28770.05, 28763.05, 0.00, 0.00, 0.00
161, 57111.63, 57117.22, 57203.57, 57178.60, 28728.27, 28738.73, 28767.10, 28760.41, 0.00, 0.00, 0.00
162, 57108.57, 57113.58, 57199.92, 57175.00, 28730.33, 28740.97, 28769.02, 28762.20, 0.00, 0.00, 0.00
163, 57046.84, 57051.57, 57137.96, 57113.04, 28757.91, 28768.42, 28796.82, 28789.81, 0.00, 0.00, 0.00
164, 57039.39, 57044.31, 57130.72, 57105.26, 28739.22, 28749.88, 28778.23, 28771.05, 0.00, 0.00, 0.00
165, 57095.16, 57100.43, 57186.46, 57161.63, 28702.48, 28712.80, 28740.99, 28733.97, 0.00, 0.00, 0.00
166, 57122.47, 57127.77, 57213.85, 57188.99, 28702.32, 28712.96, 28740.88, 28734.24, 0.00, 0.00, 0.00
167, 57076.50, 57081.73, 57168.07, 57143.06, 28738.55, 28748.92, 28777.00, 28770.72, 0.00, 0.00, 0.00
168, 57045.02, 57050.23, 57136.55, 57111.54, 28751.27, 28761.31, 28789.58, 28782.90, 0.00, 0.00, 0.00
169, 57087.16, 57091.92, 57178.31, 57153.43, 28732.79, 28743.25, 28771.48, 28764.53, -0.14, 0.35, 0.91
170, 57122.74, 57127.55, 57214.27, 57189.02, 28719.58, 28730.24, 28758.38, 28751.00, 0.00, 0.00, 0.00
171, 57082.46, 57087.31, 57173.59, 57148.63, 28743.40, 28754.27, 28782.59, 28775.12, 0.00, 0.00, 0.00
172, 57057.41, 57062.50, 57148.83, 57123.43, 28767.34, 28778.34, 28806.23, 28799.30, 0.00, 0.00, 0.00
173, 57086.87, 57092.10, 57178.40, 57153.32, 28755.67, 28766.36, 28794.34, 28787.84, 0.00, 0.00, 0.00
174, 57139.13, 57144.33, 57230.77, 57206.09, 28734.15, 28744.48, 28773.09, 28766.07, 0.00, 0.00, 0.00
175, 57095.23, 57099.96, 57186.49, 57161.57, 28732.92, 28743.36, 28771.77, 28764.97, 0.00, 0.00, 0.00
176, 57035.64, 57040.51, 57126.99, 57102.09, 28748.66, 28759.18, 28787.59, 28780.53, 0.00, 0.00, 0.00
177, 57068.56, 57073.84, 57160.20, 57134.90, 28741.53, 28752.03, 28780.35, 28773.44, 0.00, 0.00, 0.00
178, 57104.64, 57109.78, 57196.19, 57171.25, 28719.44, 28730.19, 28758.38, 28751.74, 0.00, 0.00, 0.00
179, 57081.17, 57086.04, 57172.68, 57147.29, 28733.08, 28743.76, 28772.04, 28765.42, -0.12, 0.33, 0.94
180, 57044.27, 57049.05, 57135.44, 57110.00, 28755.54, 28765.76, 28794.21, 28787.23, 0.00, 0.00, 0.00
181, 57055.48, 57060.61, 57146.79, 57121.76, 28748.37, 28758.94, 28786.90, 28780.44, 0.00, 0.00, 0.00
182, 57088.75, 57093.95, 57180.23, 57155.29, 28729.84, 28740.27, 28768.46, 28761.64, 0.00, 0.00, 0.00
183, 57098.67, 57104.05, 57190.65, 57165.28, 28720.47, 28731.24, 28759.16, 28752.30, 0.00, 0.00, 0.00
184, 57044.85, 57050.16, 57136.85, 57111.41, 28737.68, 28748.43, 28776.35, 28769.31, 0.00, 0.00, 0.00
185, 57045.07, 57050.50, 57136.82, 57111.75, 28737.50, 28748.19, 28776.44, 28769.38, 0.00, 0.00, 0.00
186, 57104.73, 57109.69, 57196.08, 57170.86, 28721.07, 28731.54, 28760.23, 28752.79, 0.00, 0.00, 0.00
187, 57111.01, 57115.93, 57202.27, 57177.23, 28727.38, 28737.75, 28766.76, 28759.50, 0.00, 0.00, 0.00
188, 57044.36, 57049.50, 57135.71, 57110.80, 28750.06, 28760.57, 28789.02, 28782.07, 0.00, 0.00, 0.00
189, 57038.68, 57043.97, 57130.21, 57105.11, 28743.07, 28753.37, 28781.92, 28774.72, -0.10, 0.31, 0.94
190, 57100.75, 57106.07, 57192.25, 57167.22, 28713.23, 28723.80, 28752.25, 28744.86, 0.00, 0.00, 0.00
191, 57119.84, 57125.09, 57211.23, 57186.33, 28723.91, 28734.28, 28762.76, 28755.63, 0.00, 0.00, 0.00
192, 57058.08, 57063.06, 57149.41, 57124.24, 28750.11, 28760.73, 28789.02, 28781.98, 0.00, 0.00, 0.00
193, 57019.48, 57024.71, 57111.07, 57085.88, 28761.87, 28772.77, 28800.69, 28793.81, 0.00, 0.00, 0.00
194, 57061.05, 57066.17, 57152.56, 57127.57, 28727.85, 28738.53, 28766.43, 28759.63, 0.00, 0.00, 0.00
195, 57101.38, 57106.09, 57193.02, 57167.96, 28704.06, 28714.50, 28742.42, 28735.71, 0.00, 0.00, 0.00
196, 57053.79, 57059.13, 57145.45, 57120.17, 28713.27, 28724.09, 28752.01, 28745.10, 0.00, 0.00, 0.00
197, 57022.41, 57027.95, 57114.05, 57088.72, 28730.55, 28741.30, 28769.24, 28762.47, 0.00, 0.00, 0.00
198, 57071.33, 57076.43, 57163.20, 57137.70, 28722.24, 28732.67, 28760.55, 28753.86, 0.00, 0.00, 0.00
199, 57109.89, 57115.14, 57201.55, 57176.39, 28698.54, 28708.87, 28736.88, 28729.86, 0.00, 0.00, 0.00
200, 57080.86, 57086.11, 57172.32, 57147.13, 28699.06, 28709.59, 28737.79, 28730.71, -0.10, 0.31, 0.92
201, 57043.57, 57048.55, 57135.04, 57110.02, 28716.69, 28727.36, 28755.65, 28748.72, 0.00, 0.00, 0.00
202, 57064.29, 57069.32, 57155.71, 57130.90, 28713.68, 28724.20, 28752.66, 28745.77, 0.00, 0.00, 0.00
203, 57103.45, 57108.57, 57195.05, 57170.20, 28688.66, 28698.99, 28727.40, 28720.52, 0.00, 0.00, 0.00
204, 57095.18, 57100.68, 57187.07, 57161.79, 28687.97, 28698.81, 28726.97, 28720.00, 0.00, 0.00, 0.00
205, 57038.99, 57044.51, 57130.92, 57105.82, 28713.03, 28723.73, 28751.79, 28744.88, 0.00, 0.00, 0.00
206, 57044.18, 57049.54, 57135.97, 57110.88, 28713.56, 28723.91, 28752.37, 28745.44, 0.00, 0.00, 0.00
207, 57091.07, 57096.32, 57182.76, 57157.63, 28699.93, 28710.23, 28738.71, 28731.94, 0.00, 0.00, 0.00
208, 57086.31, 57091.45, 57177.97, 57152.80, 28702.43, 28713.14, 28741.37, 28734.51, 0.00, 0.00, 0.00
209, 57049.83, 57055.24, 57141.47, 57116.46, 28720.49, 28731.06, 28759.41, 28752.25, 0.00, 0.00, 0.00
210, 57030.27, 57035.97, 57122.07, 57096.97, 28715.62, 28726.08, 28754.02, 28747.05, -0.11, 0.30, 0.92
211, 57076.21, 57081.41, 57167.82, 57143.04, 28692.04, 28702.63, 28730.64, 28723.76, 0.00, 0.00, 0.00
212, 57101.30, 57106.36, 57192.88, 57167.94, 28700.96, 28711.73, 28739.87, 28732.94, 0.00, 0.00, 0.00
213, 57041.92, 57046.93, 57133.52, 57108.23, 28711.06, 28721.68, 28749.73, 28743.02, 0.00, 0.00, 0.00
214, 57024.08, 57029.16, 57115.23, 57090.49, 28714.79, 28725.48, 28753.73, 28746.89, 0.00, 0.00, 0.00
215, 57079.38, 57084.63, 57170.91, 57146.05, 28699.15, 28709.74, 28737.86, 28731.11, 0.00, 0.00, 0.00
216, 57111.84, 57116.82, 57203.32, 57178.42, 28690.61, 28701.05, 28729.05, 28722.50, 0.00, 0.00, 0.00
217, 57061.30, 57066.59, 57152.89, 57128.11, 28706.97, 28717.52, 28745.64, 28738.60, 0.00, 0.00, 0.00
218, 57022.58, 57027.75, 57114.25, 57089.24, 28725.75, 28736.09, 28764.39, 28757.17, 0.00, 0.00, 0.00
219, 57052.13, 57057.14, 57143.48, 57118.70, 28717.10, 28727.82, 28755.99, 28748.99, 0.00, 0.00, 0.00
220, 57089.35, 57094.42, 57181.04, 57155.67, 28701.34, 28711.66, 28740.16, 28733.23, -0.14, 0.30, 0.92
221, 57067.46, 57072.70, 57159.46, 57134.07, 28722.08, 28732.70, 28760.68, 28753.82, 0.00, 0.00, 0.00
222, 57023.07, 57028.48, 57114.92, 57089.39, 28743.65, 28754.71, 28782.70, 28775.97, 0.00, 0.00, 0.00
223, 57041.63, 57046.77, 57133.09, 57107.95, 28727.73, 28738.58, 28767.05, 28760.08, 0.00, 0.00, 0.00
224, 57101.87, 57106.43, 57193.24, 57167.94, 28690.77, 28701.40, 28729.79, 28722.64, 0.00, 0.00, 0.00
225, 57068.56, 57073.37, 57159.78, 57134.57, 28691.12, 28702.01, 28730.35, 28723.26, 0.00, 0.00, 0.00
226, 57026.92, 57031.77, 57118.16, 57092.81, 28720.76, 28731.69, 28759.88, 28752.50, 0.00, 0.00, 0.00
227, 57037.67, 57042.70, 57129.13, 57104.14, 28728.67, 28739.00, 28767.43, 28760.41, 0.00, 0.00, 0.00
228, 57085.23, 57090.46, 57176.79, 57152.00, 28709.29, 28720.09, 28748.25, 28741.28, 0.00, 0.00, 0.00
229, 57074.26, 57079.36, 57165.72, 57140.54, 28717.14, 28727.47, 28755.74, 28748.66, 0.00, 0.00, 0.00
230, 57018.20, 57023.16, 57109.29, 57083.96, 28728.18, 28738.78, 28767.21, 28760.05, -0.14, 0.29, 0.91
231, 57017.27, 57022.38, 57108.73, 57083.31, 28719.33, 28729.99, 28758.47, 28751.25, 0.00, 0.00, 0.00
232, 57060.56, 57065.99, 57152.40, 57126.81, 28706.10, 28716.56, 28745.01, 28737.95, 0.00, 0.00, 0.00
233, 57070.15, 57075.33, 57161.99, 57136.67, 28712.38, 28722.53, 28750.94, 28744.10, 0.00, 0.00, 0.00
234, 57009.15, 57014.31, 57100.79, 57075.54, 28731.78, 28741.84, 28770.07, 28763.30, 0.00, 0.00, 0.00
235, 57007.32, 57012.61, 57098.98, 57073.75, 28728.52, 28739.11, 28767.50, 28760.32, 0.00, 0.00, 0.00
236, 57054.91, 57060.05, 57146.68, 57121.51, 28709.76, 28720.54, 28748.68, 28741.68, 0.00, 0.00, 0.00
237, 57070.35, 57075.42, 57161.99, 57136.40, 28707.64, 28718.39, 28746.33, 28739.47, 0.00, 0.00, 0.00
238, 57014.25, 57019.61, 57105.87, 57080.50, 28715.08, 28725.77, 28754.33, 28747.16, 0.00, 0.00, 0.00
239, 56997.26, 57002.54, 57088.75, 57063.69, 28701.76, 28712.74, 28740.74, 28733.93, 0.00, 0.00, 0.00
240, 57051.24, 57056.60, 57142.70, 57117.78, 28680.73, 28691.23, 28719.42, 28712.42, -0.16, 0.29, 0.91
241, 57061.79, 57067.00, 57153.25, 57128.20, 28683.72, 28694.23, 28722.95, 28715.69, 0.00, 0.00, 0.00
242, 57022.20, 57027.52, 57113.55, 57088.52, 28713.56, 28723.64, 28752.14, 28745.17, 0.00, 0.00, 0.00
243, 56988.43, 56993.68, 57079.89, 57055.06, 28731.76, 28742.13, 28770.56, 28763.63, 0.00, 0.00, 0.00
244, 57030.38, 57035.95, 57122.18, 57097.21, 28713.41, 28724.07, 28752.25, 28745.66, 0.00, 0.00, 0.00
245, 57077.48, 57082.84, 57169.19, 57144.09, 28705.14, 28715.49, 28743.96, 28737.03, 0.00, 0.00, 0.00
246, 57050.14, 57055.35, 57141.88, 57116.44, 28729.66, 28740.16, 28768.55, 28761.20, 0.00, 0.00, 0.00
247, 57010.04, 57015.21, 57101.42, 57076.05, 28748.79, 28759.85, 28787.95, 28780.69, 0.00, 0.00, 0.00
248, 57037.98, 57043.06, 57129.40, 57104.17, 28732.74, 28743.63, 28771.72, 28764.71, 0.00, 0.00, 0.00
249, 57073.12, 57078.26, 57164.63, 57139.55, 28706.72, 28717.27, 28745.53, 28738.78, 0.00, 0.00, 0.00
250, 57044.27, 57049.16, 57135.59, 57110.52, 28709.61, 28720.25, 28748.50, 28741.55, 0.00, 0.00, 0.00
251, 56993.23, 56998.58, 57084.74, 57059.73, 28731.89, 28742.49, 28770.94, 28763.77, -0.17, 0.29, 0.92
252, 57018.43, 57023.84, 57109.64, 57084.70, 28736.27, 28746.71, 28775.05, 28768.08, 0.00, 0.00, 0.00
253, 57060.40, 57065.66, 57151.71, 57126.61, 28713.90, 28723.96, 28752.34, 28745.44, 0.00, 0.00, 0.00
254, 57047.48, 57052.63, 57139.30, 57113.82, 28719.80, 28729.90, 28758.09, 28751.41, 0.00, 0.00, 0.00
255, 56994.38, 56999.47, 57086.00, 57060.96, 28731.96, 28742.31, 28770.87, 28764.08, 0.00, 0.00, 0.00
0, 56992.32, 56997.26, 57083.80, 57058.73, 28719.78, 28730.22, 28758.92, 28751.58, 0.00, 0.00, 0.00
1, 57035.79, 57040.80, 57127.46, 57102.27, 28716.87, 28727.33, 28755.88, 28748.57, 0.00, 0.00, 0.00
2, 57050.43, 57055.26, 57141.92, 57116.71, 28710.05, 28720.45, 28748.90, 28741.91, 0.00, 0.00, 0.00
3, 56994.27, 56999.38, 57085.88, 57060.74, 28728.21, 28738.42, 28766.96, 28760.05, 0.00, 0.00, 0.00
4, 56975.13, 56980.65, 57067.11, 57041.79, 28735.31, 28745.59, 28773.98, 28766.92, 0.00, 0.00, 0.00
5, 57037.83, 57043.19, 57129.63, 57104.26, 28722.46, 28732.79, 28761.35, 28754.27, -0.16, 0.29, 0.92
6, 57042.66, 57047.86, 57134.41, 57109.24, 28721.86, 28732.25, 28760.68, 28753.64, 0.00, 0.00, 0.00
7, 56990.53, 56995.61, 57081.73, 57056.36, 28741.50, 28751.96, 28780.20, 28773.42, 0.00, 0.00, 0.00
8, 56972.38, 56977.86, 57064.02, 57038.77, 28747.36, 28758.00, 28786.01, 28779.23, 0.00, 0.00, 0.00
9, 57029.91, 57035.04, 57121.25, 57096.25, 28729.39, 28740.19, 28768.17, 28761.29, 0.00, 0.00, 0.00
10, 57068.61, 57073.59, 57159.91, 57135.04, 28702.07, 28713.07, 28740.88, 28734.35, 0.00, 0.00, 0.00
11, 57003.09, 57008.48, 57094.64, 57069.66, 28707.87, 28718.62, 28746.67, 28739.67, 0.00, 0.00, 0.00
12, 56975.00, 56980.16, 57066.73, 57041.45, 28735.83, 28746.15, 28774.43, 28767.37, 0.00, 0.00, 0.00
13, 57012.68, 57017.58, 57103.70, 57078.87, 28730.33, 28740.74, 28769.02, 28762.00, 0.00, 0.00, 0.00
14, 57055.98, 57060.74, 57147.06, 57122.03, 28707.19, 28717.86, 28745.93, 28739.34, 0.00, 0.00, 0.00
15, 57020.50, 57025.51, 57112.15, 57086.71, 28710.57, 28721.23, 28749.26, 28742.62, -0.16, 0.30, 0.92
16, 56968.92, 56974.06, 57060.65, 57035.46, 28715.31, 28725.81, 28754.27, 28747.09, 0.00, 0.00, 0.00
17, 57009.31, 57014.56, 57101.06, 57075.45, 28700.24, 28710.90, 28739.29, 28731.91, 0.00, 0.00, 0.00
18, 57047.15, 57052.67, 57138.81, 57113.58, 28686.43, 28696.96, 28725.54, 28718.24, 0.00, 0.00, 0.00
19, 57009.53, 57014.96, 57101.08, 57076.36, 28706.86, 28717.23, 28745.73, 28738.55, 0.00, 0.00, 0.00
20, 56951.30, 56956.49, 57042.61, 57017.55, 28731.78, 28742.26, 28770.65, 28763.52, 0.00, 0.00, 0.00
21, 56950.54, 56955.46, 57041.79, 57016.88, 28727.96, 28738.53, 28766.92, 28759.63, 0.00, 0.00, 0.00
22, 57007.36, 57011.90, 57098.40, 57073.34, 28699.86, 28710.72, 28738.93, 28731.91, 0.00, 0.00, 0.00
23, 57000.05, 57004.97, 57091.41, 57066.44, 28701.56, 28712.58, 28740.52, 28733.95, 0.00, 0.00, 0.00
24, 56972.92, 56978.35, 57064.32, 57039.62, 28732.29, 28743.18, 28771.25, 28764.26, 0.00, 0.00, 0.00
25, 56955.13, 56960.71, 57046.54, 57021.60, 28721.14, 28732.07, 28760.14, 28753.10, -0.16, 0.31, 0.93
26, 56998.38, 57003.74, 57089.89, 57064.36, 28693.20, 28704.02, 28732.18, 28724.96, 0.00, 0.00, 0.00
27, 57002.38, 57007.36, 57093.75, 57068.32, 28693.11, 28703.57, 28731.85, 28724.92, 0.00, 0.00, 0.00
28, 56948.82, 56953.83, 57040.27, 57014.74, 28725.63, 28736.03, 28764.50, 28757.66, 0.00, 0.00, 0.00
29, 56955.53, 56960.49, 57047.21, 57021.80, 28734.84, 28745.26, 28773.76, 28766.65, 0.00, 0.00, 0.00
30, 57024.75, 57029.98, 57116.50, 57091.29, 28709.29, 28719.78, 28747.85, 28741.10, 0.00, 0.00, 0.00
31, 57026.09, 57031.26, 57117.51, 57092.37, 28687.99, 28698.54, 28726.42, 28720.00, 0.00, 0.00, 0.00
32, 56974.97, 56979.98, 57066.10, 57041.38, 28718.44, 28729.23, 28757.15, 28750.58, 0.00, 0.00, 0.00
33, 56953.32, 56958.37, 57044.91, 57019.72, 28724.96, 28735.36, 28763.70, 28756.57, 0.00, 0.00, 0.00
34, 57003.59, 57008.93, 57095.27, 57070.17, 28697.05, 28707.48, 28735.83, 28728.72, 0.00, 0.00, 0.00
35, 57031.32, 57036.57, 57122.86, 57098.11, 28675.74, 28686.59, 28714.75, 28707.73, 0.00, 0.00, 0.00
36, 56999.56, 57004.68, 57091.18, 57066.17, 28698.63, 28709.63, 28737.77, 28730.91, -0.14, 0.31, 0.93
37, 56949.32, 56954.43, 57040.71, 57015.77, 28724.40, 28735.42, 28763.72, 28756.55, 0.00, 0.00, 0.00
38, 56985.61, 56990.62, 57076.94, 57051.95, 28707.62, 28718.50, 28746.80, 28739.67, 0.00, 0.00, 0.00
39, 57033.67, 57039.08, 57125.20, 57100.30, 28679.43, 28690.05, 28718.01, 28711.17, 0.00, 0.00, 0.00
40, 57009.22, 57014.58, 57100.57, 57075.85, 28700.47, 28711.46, 28739.45, 28732.56, 0.00, 0.00, 0.00
41, 56973.88, 56978.77, 57065.10, 57040.06, 28718.24, 28728.83, 28756.84, 28750.20, 0.00, 0.00, 0.00
42, 56977.81, 56983.07, 57069.12, 57044.11, 28708.02, 28718.71, 28746.85, 28739.63, 0.00, 0.00, 0.00
43, 57046.14, 57051.51, 57137.85, 57112.80, 28689.16, 28699.71, 28727.60, 28720.67, 0.00, 0.00, 0.00
44, 57034.68, 57040.22, 57126.72, 57101.29, 28693.00, 28703.24, 28731.24, 28724.25, 0.00, 0.00, 0.00
45, 56987.02, 56991.78, 57078.48, 57053.30, 28708.33, 28718.84, 28746.82, 28739.96, 0.00, 0.00, 0.00
46, 56997.10, 57001.82, 57088.50, 57063.22, 28695.62, 28706.30, 28734.37, 28727.56, -0.12, 0.30, 0.91
47, 57049.61, 57054.77, 57141.32, 57116.10, 28674.58, 28685.13, 28713.29, 28706.30, 0.00, 0.00, 0.00
48, 57057.18, 57062.35, 57148.94, 57123.82, 28685.42, 28695.97, 28724.27, 28717.36, 0.00, 0.00, 0.00
49, 57002.40, 57007.23, 57093.98, 57068.76, 28709.54, 28720.18, 28748.41, 28741.39, 0.00, 0.00, 0.00
50, 57008.95, 57013.55, 57100.28, 57075.00, 28717.72, 28728.25, 28756.61, 28749.68, 0.00, 0.00, 0.00
51, 57051.17, 57055.93, 57142.41, 57117.38, 28689.56, 28700.18, 28728.38, 28721.54, 0.00, 0.00, 0.00
52, 57045.65, 57050.81, 57136.91, 57112.39, 28679.52, 28689.76, 28718.17, 28711.22, 0.00, 0.00, 0.00
53, 57017.27, 57022.56, 57108.84, 57083.92, 28690.65, 28701.27, 28729.39, 28722.46, 0.00, 0.00, 0.00
54, 56993.53, 56998.62, 57085.06, 57059.96, 28687.03, 28697.87, 28725.79, 28718.93, 0.00, 0.00, 0.00
55, 57043.39, 57048.60, 57134.68, 57109.80, 28679.86, 28690.34, 28718.21, 28711.20, 0.00, 0.00, 0.00
56, 57077.77, 57083.25, 57169.39, 57144.38, 28683.79, 28694.12, 28722.19, 28715.15, -0.13, 0.31, 0.93
57, 57035.41, 57040.60, 57126.96, 57102.07, 28706.86, 28717.50, 28745.46, 28738.60, 0.00, 0.00, 0.00
58, 57023.05, 57027.57, 57114.47, 57089.28, 28725.12, 28735.69, 28764.06, 28756.99, 0.00, 0.00, 0.00
59, 57054.08, 57058.95, 57145.68, 57120.71, 28691.10, 28701.67, 28729.84, 28723.06, 0.00, 0.00, 0.00
60, 57098.56, 57103.56, 57190.09, 57165.12, 28673.58, 28684.13, 28712.29, 28705.58, 0.00, 0.00, 0.00
61, 57076.14, 57081.17, 57167.73, 57142.70, 28693.92, 28704.42, 28732.63, 28726.01, 0.00, 0.00, 0.00
62, 57041.18, 57046.25, 57132.93, 57107.45, 28718.82, 28729.01, 28757.55, 28750.69, 0.00, 0.00, 0.00
63, 57074.44, 57079.58, 57166.11, 57140.82, 28695.75, 28706.03, 28734.37, 28727.24, 0.00, 0.00, 0.00
64, 57108.66, 57113.80, 57200.28, 57174.98, 28673.00, 28683.52, 28711.71, 28704.73, 0.00, 0.00, 0.00
65, 57087.54, 57092.66, 57179.05, 57153.95, 28683.75, 28694.52, 28722.59, 28715.46, 0.00, 0.00, 0.00
66, 57053.52, 57058.46, 57145.00, 57119.86, 28702.88, 28713.61, 28741.97, 28734.80, -0.14, 0.30, 0.93
67, 57070.26, 57075.42, 57161.93, 57136.82, 28690.23, 28701.14, 28729.05, 28722.42, 0.00, 0.00, 0.00
68, 57101.06, 57106.00, 57192.68, 57167.78, 28663.74, 28674.52, 28702.39, 28695.66, 0.00, 0.00, 0.00
69, 57120.13, 57125.16, 57212.04, 57186.94, 28657.84, 28668.48, 28696.58, 28689.65, 0.00, 0.00, 0.00
70, 57071.73, 57076.81, 57163.20, 57138.03, 28681.96, 28692.55, 28720.89, 28713.70, 0.00, 0.00, 0.00
71, 57070.75, 57075.80, 57162.21, 57136.78, 28708.29, 28718.95, 28747.31, 28740.50, 0.00, 0.00, 0.00
72, 57111.16, 57115.95, 57202.58, 57176.97, 28695.44, 28705.94, 28734.20, 28727.42, 0.00, 0.00, 0.00
73, 57112.80, 57117.49, 57204.21, 57179.18, 28689.42, 28700.00, 28727.82, 28721.21, 0.00, 0.00, 0.00
74, 57083.25, 57088.28, 57175.13, 57149.88, 28711.02, 28721.61, 28749.33, 28742.91, 0.00, 0.00, 0.00
75, 57051.46, 57056.80, 57143.13, 57118.00, 28704.76, 28715.17, 28743.27, 28736.56, 0.00, 0.00, 0.00
76, 57114.89, 57120.08, 57206.36, 57181.24, 28689.67, 28700.11, 28728.45, 28721.57, -0.13, 0.30, 0.91
77, 57115.88, 57120.98, 57207.34, 57182.27, 28673.13, 28683.61, 28712.18, 28705.18, 0.00, 0.00, 0.00
78, 57064.00, 57069.32, 57155.49, 57130.45, 28684.82, 28695.46, 28723.80, 28716.92, 0.00, 0.00, 0.00
79, 57037.87, 57043.17, 57129.43, 57104.19, 28690.01, 28700.69, 28728.65, 28721.99, 0.00, 0.00, 0.00
80, 57106.27, 57111.52, 57198.18, 57173.04, 28685.29, 28695.86, 28723.82, 28717.01, 0.00, 0.00, 0.00
81, 57124.42, 57129.31, 57215.79, 57190.69, 28677.73, 28688.57, 28716.43, 28709.38, 0.00, 0.00, 0.00
82, 57065.50, 57070.44, 57156.65, 57131.64, 28697.11, 28707.87, 28736.09, 28728.88, 0.00, 0.00, 0.00
83, 57041.16, 57046.14, 57132.55, 57107.39, 28707.78, 28718.93, 28746.89, 28739.78, 0.00, 0.00, 0.00
84, 57075.20, 57080.07, 57166.89, 57141.43, 28684.55, 28695.32, 28723.49, 28716.36, 0.00, 0.00, 0.00
85, 57120.30, 57124.87, 57211.84, 57186.46, 28675.97, 28686.25, 28714.70, 28707.60, 0.00, 0.00, 0.00
86, 57091.56, 57096.59, 57182.76, 57157.84, 28682.49, 28693.04, 28721.30, 28714.12, 0.00, 0.00, 0.00
87, 57020.17, 57025.36, 57111.70, 57086.75, 28685.40, 28695.84, 28724.18, 28717.21, -0.13, 0.30, 0.94
88, 57058.77, 57064.02, 57150.57, 57125.38, 28663.03, 28673.53, 28702.07, 28695.12, 0.00, 0.00, 0.00
89, 57101.73, 57107.30, 57193.55, 57168.36, 28637.84, 28648.48, 28676.71, 28669.91, 0.00, 0.00, 0.00
90, 57089.57, 57094.87, 57181.24, 57155.98, 28652.28, 28663.00, 28691.01, 28684.46, 0.00, 0.00, 0.00
91, 57054.75, 57059.87, 57146.39, 57121.18, 28670.04, 28680.44, 28708.94, 28701.88, 0.00, 0.00, 0.00
92, 57047.39, 57052.56, 57139.02, 57114.02, 28665.42, 28675.97, 28704.47, 28697.31, 0.00, 0.00, 0.00
93, 57094.18, 57099.18, 57185.86, 57160.67, 28664.26, 28674.78, 28702.88, 28696.20, 0.00, 0.00, 0.00
94, 57098.38, 57103.32, 57190.20, 57164.76, 28672.10, 28682.52, 28710.32, 28703.75, 0.00, 0.00, 0.00
95, 57032.62, 57037.71, 57124.60, 57098.89, 28693.11, 28703.75, 28731.74, 28725.03, 0.00, 0.00, 0.00
96, 57041.61, 57046.88, 57133.36, 57107.97, 28680.48, 28691.28, 28719.64, 28712.56, 0.00, 0.00, 0.00
97, 57090.89, 57096.30, 57182.62, 57157.57, 28656.14, 28666.47, 28694.90, 28687.79, -0.15, 0.30, 0.94
98, 57101.64, 57106.83, 57193.30, 57168.07, 28656.50, 28667.14, 28695.30, 28688.37, 0.00, 0.00, 0.00
99, 57047.26, 57052.65, 57139.04, 57113.91, 28691.12, 28701.83, 28729.88, 28722.79, 0.00, 0.00, 0.00
100, 57014.49, 57019.66, 57106.18, 57081.05, 28687.14, 28697.52, 28725.92, 28718.91, 0.00, 0.00, 0.00
101, 57069.95, 57075.04, 57161.70, 57136.46, 28658.33, 28668.64, 28697.20, 28690.09, 0.00, 0.00, 0.00
102, 57098.85, 57104.01, 57190.63, 57165.46, 28650.71, 28660.95, 28689.31, 28682.23, 0.00, 0.00, 0.00
103, 57069.57, 57074.57, 57161.21, 57136.09, 28670.71, 28680.93, 28708.98, 28702.21, 0.00, 0.00, 0.00
104, 57020.33, 57025.29, 57111.75, 57086.75, 28673.55, 28684.10, 28712.11, 28705.25, 0.00, 0.00, 0.00
105, 57049.88, 57054.82, 57141.36, 57116.39, 28650.13, 28660.68, 28688.87, 28681.89, 0.00, 0.00, 0.00
106, 57088.52, 57093.86, 57180.54, 57155.29, 28641.46, 28652.01, 28680.21, 28673.29, 0.00, 0.00, 0.00
107, 57047.91, 57052.89, 57139.46, 57114.27, 28665.64, 28676.13, 28704.18, 28697.25, -0.16, 0.30, 0.94
108, 57012.37, 57017.24, 57103.54, 57078.20, 28676.64, 28687.37, 28715.80, 28708.47, 0.00, 0.00, 0.00
109, 57067.73, 57072.47, 57159.06, 57133.80, 28654.69, 28665.46, 28693.47, 28686.36, 0.00, 0.00, 0.00
110, 57119.68, 57124.71, 57211.07, 57186.11, 28640.25, 28650.85, 28678.99, 28672.06, 0.00, 0.00, 0.00
111, 57073.30, 57078.26, 57164.83, 57139.64, 28660.14, 28670.92, 28699.15, 28692.08, 0.00, 0.00, 0.00
112, 57032.84, 57038.23, 57124.60, 57099.45, 28677.31, 28687.75, 28715.89, 28709.05, 0.00, 0.00, 0.00
113, 57035.82, 57040.80, 57127.17, 57102.54, 28665.02, 28675.46, 28703.24, 28696.58, 0.00, 0.00, 0.00
114, 57083.49, 57088.23, 57174.31, 57150.05, 28636.47, 28647.27, 28675.03, 28668.12, 0.00, 0.00, 0.00
115, 57085.50, 57090.73, 57176.88, 57152.09, 28642.64, 28652.90, 28680.93, 28674.16, 0.00, 0.00, 0.00
116, 57032.51, 57037.94, 57124.26, 57099.00, 28669.42, 28679.54, 28707.69, 28701.14, 0.00, 0.00, 0.00
117, 57032.39, 57037.31, 57124.04, 57098.78, 28670.31, 28680.71, 28709.09, 28702.28, -0.16, 0.30, 0.92
118, 57088.25, 57093.30, 57179.92, 57154.53, 28646.96, 28657.30, 28685.63, 28678.79, 0.00, 0.00, 0.00
119, 57097.29, 57102.20, 57188.81, 57163.38, 28656.79, 28667.23, 28695.48, 28688.53, 0.00, 0.00, 0.00
120, 57027.59, 57032.93, 57119.19, 57094.07, 28675.23, 28685.69, 28713.81, 28707.04, 0.00, 0.00, 0.00
121, 57015.23, 57020.33, 57106.87, 57082.02, 28655.70, 28665.96, 28694.07, 28687.61, 0.00, 0.00, 0.00
122, 57092.30, 57097.13, 57183.89, 57158.75, 28635.13, 28645.37, 28673.55, 28666.69, 0.00, 0.00, 0.00
123, 57096.25, 57101.38, 57187.90, 57162.77, 28639.83, 28650.24, 28678.25, 28671.61, 0.00, 0.00, 0.00
124, 57048.89, 57054.12, 57140.60, 57115.37, 28678.83, 28689.25, 28717.32, 28710.68, 0.00, 0.00, 0.00
125, 57033.78, 57038.86, 57125.11, 57100.21, 28674.96, 28685.24, 28713.70, 28706.77, 0.00, 0.00, 0.00
126, 57101.08, 57106.25, 57192.68, 57167.56, 28647.80, 28658.27, 28686.29, 28679.66, 0.00, 0.00, 0.00
127, 57127.50, 57132.78, 57219.23, 57193.91, 28636.36, 28646.98, 28675.07, 28668.03, 0.00, 0.00, 0.00
128, 57043.28, 57048.51, 57134.88, 57109.55, 28648.14, 28658.76, 28686.74, 28679.99, -0.17, 0.30, 0.91
129, 57013.51, 57018.83, 57105.09, 57079.96, 28674.40, 28684.71, 28712.69, 28705.92, 0.00, 0.00, 0.00
130, 57057.03, 57062.28, 57148.60, 57123.55, 28657.82, 28668.14, 28696.46, 28689.51, 0.00, 0.00, 0.00
131, 57095.09, 57100.01, 57186.24, 57161.46, 28642.89, 28653.21, 28681.11, 28674.69, 0.00, 0.00, 0.00
132, 57055.98, 57060.61, 57147.30, 57122.18, 28652.34, 28662.83, 28690.88, 28684.13, 0.00, 0.00, 0.00
133, 57021.11, 57026.05, 57112.53, 57087.38, 28669.08, 28679.59, 28707.91, 28700.85, 0.00, 0.00, 0.00
134, 57066.04, 57071.00, 57157.36, 57132.53, 28649.32, 28659.94, 28688.37, 28681.22, 0.00, 0.00, 0.00
135, 57105.04, 57110.07, 57196.82, 57171.87, 28628.52, 28638.98, 28667.25, 28660.05, 0.00, 0.00, 0.00
136, 57073.79, 57078.82, 57165.55, 57140.47, 28651.47, 28662.15, 28690.41, 28683.08, 0.00, 0.00, 0.00
137, 57015.95, 57021.18, 57107.66, 57082.49, 28673.73, 28684.30, 28712.96, 28705.65, 0.00, 0.00, 0.00
138, 57069.79, 57075.25, 57161.66, 57136.29, 28667.32, 28677.80, 28706.19, 28698.95, -0.16, 0.31, 0.91
139, 57109.31, 57114.47, 57201.09, 57175.98, 28640.47, 28650.76, 28679.19, 28672.01, 0.00, 0.00, 0.00
140, 57082.31, 57087.31, 57173.82, 57148.74, 28631.94, 28642.46, 28670.38, 28663.65, 0.00, 0.00, 0.00
141, 57019.45, 57024.75, 57111.07, 57085.84, 28645.06, 28656.10, 28683.57, 28677.04, 0.00, 0.00, 0.00
142, 57039.28, 57044.15, 57130.81, 57105.35, 28639.11, 28650.00, 28677.91, 28671.10, 0.00, 0.00, 0.00
143, 57107.59, 57112.08, 57198.98, 57173.57, 28627.06, 28637.99, 28666.00, 28659.25, 0.00, 0.00, 0.00
144, 57103.68, 57108.66, 57195.12, 57169.95, 28638.02, 28648.52, 28676.64, 28669.73, 0.00, 0.00, 0.00
145, 57045.81, 57050.88, 57137.34, 57112.10, 28659.38, 28670.09, 28697.85, 28691.21, 0.00, 0.00, 0.00
146, 57049.16, 57053.90, 57140.42, 57115.21, 28654.15, 28664.46, 28692.73, 28685.85, 0.00, 0.00, 0.00
147, 57095.36, 57100.17, 57186.40, 57161.32, 28631.02, 28641.59, 28669.73, 28662.65, 0.00, 0.00, 0.00
148, 57094.29, 57099.27, 57185.37, 57160.56, 28625.83, 28636.56, 28664.77, 28657.75, -0.15, 0.31, 0.94
149, 57051.86, 57056.87, 57143.15, 57118.29, 28653.62, 28664.32, 28692.22, 28685.38, 0.00, 0.00, 0.00
150, 57048.67, 57053.56, 57140.09, 57114.96, 28672.77, 28682.96, 28711.46, 28704.73, 0.00, 0.00, 0.00
151, 57079.13, 57083.85, 57170.15, 57144.96, 28651.76, 28662.40, 28690.50, 28683.77, 0.00, 0.00, 0.00
152, 57096.03, 57101.08, 57187.50, 57162.35, 28635.51, 28646.22, 28674.00, 28667.41, 0.00, 0.00, 0.00
153, 57061.54, 57066.59, 57153.03, 57128.02, 28665.62, 28676.37, 28704.15, 28697.49, 0.00, 0.00, 0.00
154, 57025.71, 57030.45, 57117.00, 57091.83, 28666.94, 28677.60, 28705.88, 28698.99, 0.00, 0.00, 0.00
