%OpenBCI Raw EEG Data
%
%Sample Rate = 250.0 Hz
%First Column = SampleIndex
%Other Columns = EEG data in microvolts followed by Accel Data (in G) interleaved with Aux Data
0, 39958.28, 39963.31, 40030.43, 40015.95, 21356.60, 21364.42, 21391.80, 21385.68, 0.02, 0.06, 0.50
1, 40045.79, 40050.66, 40117.69, 40103.30, 21297.63, 21305.59, 21333.02, 21326.49, 0.00, 0.00, 0.00
2, 40658.63, 40663.48, 40730.31, 40716.09, 20856.52, 20863.81, 20891.35, 20884.49, 0.00, 0.00, 0.00
3, 40649.93, 40654.54, 40721.55, 40707.51, 20867.16, 20874.70, 20902.10, 20895.30, 0.00, 0.00, 0.00
4, 40053.70, 40058.48, 40125.65, 40111.41, 21297.10, 21304.97, 21332.08, 21325.84, 0.00, 0.00, 0.00
5, 39967.06, 39972.14, 40039.19, 40024.80, 21354.16, 21361.96, 21389.41, 21383.15, 0.00, 0.00, 0.00
6, 40545.59, 40550.78, 40617.12, 40603.20, 20930.35, 20937.95, 20965.55, 20958.74, 0.00, 0.00, 0.00
7, 40694.79, 40699.26, 40766.23, 40752.28, 20816.54, 20823.98, 20851.70, 20844.63, 0.05, 0.11, 0.99
8, 40127.17, 40132.04, 40199.05, 40184.95, 21231.32, 21239.12, 21266.25, 21259.55, 0.00, 0.00, 0.00
9, 39929.11, 39933.51, 40000.52, 39986.53, 21387.76, 21395.45, 21422.94, 21416.35, 0.00, 0.00, 0.00
10, 40474.52, 40478.85, 40545.57, 40531.64, 20989.76, 20997.09, 21025.10, 21018.17, 0.00, 0.00, 0.00
11, 40730.15, 40734.67, 40801.50, 40787.64, 20779.43, 20786.29, 20814.53, 20807.10, 0.00, 0.00, 0.00
12, 40199.99, 40204.66, 40272.12, 40257.73, 21144.79, 21152.10, 21179.53, 21172.87, 0.00, 0.00, 0.00
13, 39828.19, 39833.00, 39900.19, 39885.77, 21382.04, 21389.95, 21417.33, 21410.98, 0.00, 0.00, 0.00
14, 40279.61, 40284.59, 40351.11, 40337.36, 21051.01, 21058.45, 21086.37, 21079.39, 0.00, 0.00, 0.00
15, 40667.70, 40672.75, 40739.18, 40725.61, 20769.04, 20775.90, 20804.24, 20797.16, 0.00, 0.00, 0.00
16, 40223.41, 40228.22, 40295.30, 40281.38, 21065.31, 21072.64, 21100.81, 21093.92, 0.00, 0.00, 0.00
17, 39775.17, 39780.16, 39847.17, 39832.98, 21385.97, 21393.77, 21421.33, 21414.89, 0.05, 0.11, 0.99
18, 40144.87, 40149.88, 40216.55, 40202.43, 21140.26, 21147.65, 21175.17, 21168.93, 0.00, 0.00, 0.00
19, 40662.38, 40667.34, 40734.00, 40719.87, 20773.17, 20780.44, 20807.78, 20801.34, 0.00, 0.00, 0.00
20, 40367.81, 40372.70, 40439.91, 40425.72, 20975.03, 20982.68, 21010.08, 21003.22, 0.00, 0.00, 0.00
21, 39824.59, 39829.24, 39896.28, 39882.13, 21358.74, 21367.02, 21393.88, 21387.71, 0.00, 0.00, 0.00
22, 40039.19, 40043.64, 40110.52, 40096.64, 21225.35, 21233.15, 21260.51, 21254.18, 0.00, 0.00, 0.00
23, 40615.15, 40619.73, 40686.45, 40672.44, 20812.80, 20820.16, 20848.05, 20840.97, 0.00, 0.00, 0.00
24, 40474.38, 40479.25, 40546.27, 40532.09, 20913.79, 20920.83, 20948.72, 20941.79, 0.00, 0.00, 0.00
25, 39896.16, 39901.37, 39968.20, 39953.86, 21335.25, 21342.58, 21370.03, 21363.55, 0.00, 0.00, 0.00
26, 39957.27, 39962.30, 40028.60, 40014.83, 21289.66, 21297.32, 21324.88, 21318.31, 0.00, 0.00, 0.00
27, 40550.60, 40555.03, 40621.48, 40607.60, 20857.96, 20865.49, 20893.05, 20886.23, 0.06, 0.11, 0.99
28, 40564.86, 40569.49, 40636.32, 40622.13, 20853.17, 20860.57, 20888.42, 20881.07, 0.00, 0.00, 0.00
29, 39980.52, 39985.35, 40052.71, 40038.25, 21275.93, 21283.91, 21311.43, 21305.10, 0.00, 0.00, 0.00
30, 39900.97, 39905.55, 39972.92, 39958.28, 21335.99, 21344.11, 21371.60, 21365.16, 0.00, 0.00, 0.00
31, 40482.38, 40486.70, 40553.68, 40539.52, 20906.55, 20913.43, 20941.71, 20934.60, 0.00, 0.00, 0.00
32, 40659.12, 40663.70, 40730.82, 40716.63, 20789.13, 20796.46, 20824.25, 20817.27, 0.00, 0.00, 0.00
33, 40102.02, 40106.98, 40174.40, 40159.91, 21206.80, 21214.24, 21241.38, 21235.10, 0.00, 0.00, 0.00
34, 39867.46, 39872.52, 39939.93, 39925.38, 21378.24, 21385.95, 21413.06, 21407.03, 0.00, 0.00, 0.00
35, 40398.99, 40403.82, 40470.38, 40456.50, 21005.88, 21013.28, 21040.72, 21034.35, 0.00, 0.00, 0.00
36, 40684.91, 40689.76, 40756.62, 40742.45, 20800.06, 20807.26, 20834.78, 20828.09, 0.00, 0.00, 0.00
37, 40200.48, 40205.40, 40272.88, 40258.30, 21134.15, 21141.82, 21169.02, 21162.72, 0.00, 0.00, 0.00
38, 39849.31, 39854.07, 39921.58, 39907.21, 21391.33, 21398.75, 21426.25, 21420.17, 0.06, 0.10, 0.99
39, 40293.76, 40298.70, 40365.53, 40351.43, 21073.87, 21081.38, 21109.05, 21102.57, 0.00, 0.00, 0.00
40, 40703.82, 40708.74, 40775.41, 40761.29, 20767.34, 20774.81, 20802.57, 20795.26, 0.00, 0.00, 0.00
41, 40307.30, 40311.88, 40379.23, 40364.86, 21051.12, 21059.28, 21086.37, 21079.68, 0.00, 0.00, 0.00
42, 39846.79, 39851.46, 39918.80, 39904.34, 21388.85, 21397.01, 21424.12, 21417.71, 0.00, 0.00, 0.00
43, 40170.35, 40175.07, 40241.88, 40227.75, 21152.60, 21160.37, 21187.64, 21181.14, 0.00, 0.00, 0.00
44, 40679.68, 40684.06, 40750.78, 40736.90, 20772.01, 20779.16, 20806.70, 20800.15, 0.00, 0.00, 0.00
45, 40405.29, 40409.94, 40477.24, 40463.05, 20972.04, 20979.35, 21006.82, 21000.49, 0.00, 0.00, 0.00
46, 39874.41, 39879.45, 39946.79, 39932.24, 21365.61, 21373.32, 21400.77, 21394.44, 0.00, 0.00, 0.00
47, 40067.58, 40072.45, 40139.20, 40125.07, 21223.38, 21230.83, 21258.68, 21252.06, 0.00, 0.00, 0.00
48, 40628.79, 40633.14, 40699.98, 40686.10, 20797.40, 20804.64, 20832.41, 20825.61, 0.06, 0.11, 0.99
49, 40499.44, 40503.84, 40570.74, 40556.86, 20876.17, 20883.55, 20911.04, 20904.54, 0.00, 0.00, 0.00
50, 39931.55, 39936.06, 40003.12, 39989.10, 21294.15, 21302.20, 21329.15, 21323.07, 0.00, 0.00, 0.00
51, 39964.05, 39968.65, 40035.68, 40021.60, 21277.88, 21285.74, 21313.01, 21306.78, 0.00, 0.00, 0.00
52, 40526.04, 40530.73, 40597.20, 40583.57, 20862.42, 20869.62, 20897.40, 20891.01, 0.00, 0.00, 0.00
53, 40553.46, 40558.18, 40624.83, 40611.20, 20830.57, 20838.02, 20865.55, 20858.85, 0.00, 0.00, 0.00
54, 39974.42, 39979.36, 40046.48, 40032.29, 21251.57, 21259.84, 21286.95, 21280.40, 0.00, 0.00, 0.00
55, 39875.36, 39880.27, 39946.86, 39932.71, 21339.01, 21346.83, 21374.57, 21368.07, 0.00, 0.00, 0.00
56, 40450.98, 40455.79, 40522.13, 40508.09, 20927.58, 20934.91, 20962.83, 20956.17, 0.00, 0.00, 0.00
57, 40622.24, 40626.89, 40693.61, 40679.70, 20788.11, 20795.08, 20822.88, 20815.73, 0.00, 0.00, 0.00
58, 40065.81, 40070.91, 40137.68, 40123.57, 21192.45, 21199.89, 21227.43, 21220.75, 0.07, 0.11, 0.99
59, 39807.43, 39812.77, 39879.49, 39865.07, 21377.52, 21385.28, 21412.79, 21406.44, 0.00, 0.00, 0.00
60, 40316.58, 40321.59, 40388.30, 40374.34, 20997.74, 21005.10, 21032.83, 21026.02, 0.00, 0.00, 0.00
61, 40639.83, 40644.50, 40711.00, 40697.34, 20757.13, 20764.39, 20791.95, 20785.00, 0.00, 0.00, 0.00
62, 40166.26, 40171.31, 40238.14, 40224.00, 21100.47, 21108.18, 21135.67, 21128.75, 0.00, 0.00, 0.00
63, 39780.49, 39785.86, 39852.64, 39838.16, 21373.43, 21381.54, 21409.13, 21402.55, 0.00, 0.00, 0.00
64, 40184.84, 40190.07, 40256.81, 40242.37, 21057.53, 21065.09, 21092.63, 21086.43, 0.00, 0.00, 0.00
65, 40599.28, 40603.84, 40670.83, 40656.70, 20746.58, 20753.79, 20781.78, 20775.25, 0.00, 0.00, 0.00
66, 40198.20, 40202.70, 40269.97, 40255.96, 21042.78, 21050.18, 21077.96, 21071.35, 0.00, 0.00, 0.00
67, 39745.51, 39750.09, 39817.51, 39803.05, 21374.53, 21382.30, 21409.64, 21403.54, 0.00, 0.00, 0.00
68, 40061.37, 40066.02, 40133.07, 40118.72, 21149.51, 21157.22, 21184.38, 21178.25, 0.07, 0.12, 0.98
69, 40591.79, 40596.27, 40662.94, 40648.93, 20764.61, 20772.01, 20799.55, 20792.87, 0.00, 0.00, 0.00
70, 40338.17, 40342.73, 40409.67, 40395.90, 20941.21, 20948.84, 20976.53, 20969.82, 0.00, 0.00, 0.00
71, 39767.21, 39772.00, 39839.26, 39825.18, 21343.41, 21351.03, 21378.66, 21372.38, 0.00, 0.00, 0.00
72, 39924.42, 39929.47, 39996.28, 39982.11, 21236.01, 21243.50, 21271.01, 21264.46, 0.00, 0.00, 0.00
73, 40506.37, 40511.08, 40577.89, 40563.95, 20824.76, 20832.09, 20860.05, 20852.95, 0.00, 0.00, 0.00
74, 40399.61, 40404.22, 40471.45, 40456.99, 20883.55, 20890.90, 20918.88, 20912.25, 0.00, 0.00, 0.00
75, 39797.84, 39802.60, 39870.30, 39855.46, 21288.11, 21295.80, 21323.63, 21317.39, 0.00, 0.00, 0.00
76, 39821.75, 39826.76, 39894.09, 39879.20, 21277.81, 21285.34, 21313.26, 21306.62, 0.00, 0.00, 0.00
77, 40430.91, 40435.73, 40502.50, 40488.35, 20844.37, 20851.63, 20879.50, 20872.48, 0.00, 0.00, 0.00
78, 40474.05, 40478.74, 40545.91, 40531.76, 20801.49, 20809.03, 20836.70, 20829.77, 0.07, 0.11, 0.98
79, 39890.42, 39895.00, 39962.35, 39948.04, 21214.78, 21222.49, 21249.96, 21243.37, 0.00, 0.00, 0.00
80, 39779.89, 39784.65, 39851.66, 39837.38, 21301.77, 21309.88, 21337.22, 21330.63, 0.00, 0.00, 0.00
81, 40361.80, 40366.42, 40432.88, 40418.64, 20878.92, 20886.21, 20913.95, 20907.15, 0.00, 0.00, 0.00
82, 40549.93, 40554.71, 40621.52, 40607.02, 20747.92, 20755.09, 20782.94, 20776.01, 0.00, 0.00, 0.00
83, 40011.43, 40016.46, 40083.70, 40069.05, 21139.63, 21147.43, 21174.68, 21168.42, 0.00, 0.00, 0.00
84, 39771.26, 39776.25, 39843.23, 39828.97, 21328.88, 21336.59, 21364.22, 21358.12, 0.00, 0.00, 0.00
85, 40297.36, 40302.12, 40368.95, 40354.71, 20962.16, 20969.67, 20997.23, 20990.77, 0.00, 0.00, 0.00
86, 40618.82, 40623.55, 40690.14, 40676.26, 20702.54, 20709.92, 20737.54, 20730.71, 0.00, 0.00, 0.00
87, 40109.11, 40113.64, 40181.08, 40167.02, 21042.85, 21050.36, 21078.01, 21071.57, 0.00, 0.00, 0.00
88, 39701.08, 39705.50, 39773.05, 39758.63, 21318.94, 21326.78, 21354.25, 21347.84, 0.00, 0.00, 0.00
89, 40104.71, 40109.31, 40176.21, 40161.97, 21024.68, 21032.41, 21060.10, 21053.46, 0.06, 0.11, 0.99
90, 40547.52, 40552.39, 40619.29, 40605.18, 20697.69, 20705.25, 20733.14, 20726.35, 0.00, 0.00, 0.00
91, 40181.30, 40186.49, 40253.39, 40239.09, 20949.06, 20956.82, 20984.51, 20977.78, 0.00, 0.00, 0.00
92, 39690.71, 39696.00, 39762.81, 39748.35, 21300.97, 21308.97, 21336.37, 21330.20, 0.00, 0.00, 0.00
93, 39975.71, 39980.45, 40047.24, 40033.29, 21102.71, 21110.22, 21138.00, 21131.29, 0.00, 0.00, 0.00
94, 40522.39, 40527.04, 40593.52, 40579.61, 20714.34, 20721.83, 20749.75, 20742.87, 0.00, 0.00, 0.00
95, 40297.85, 40302.09, 40369.33, 40354.89, 20874.85, 20882.47, 20910.17, 20903.46, 0.00, 0.00, 0.00
96, 39711.09, 39715.54, 39783.15, 39768.29, 21305.91, 21313.55, 21341.02, 21334.52, 0.00, 0.00, 0.00
97, 39879.51, 39884.21, 39951.30, 39936.71, 21186.23, 21193.48, 21221.26, 21214.69, 0.00, 0.00, 0.00
98, 40475.05, 40479.75, 40546.42, 40532.32, 20761.46, 20768.39, 20796.42, 20789.74, 0.00, 0.00, 0.00
99, 40410.45, 40415.04, 40481.89, 40467.95, 20810.28, 20817.72, 20845.21, 20838.71, 0.06, 0.11, 0.99
100, 39822.16, 39826.94, 39894.29, 39879.87, 21232.30, 21240.17, 21267.21, 21261.02, 0.00, 0.00, 0.00
101, 39810.76, 39815.65, 39882.73, 39868.61, 21245.20, 21253.29, 21280.49, 21274.21, 0.00, 0.00, 0.00
102, 40413.90, 40418.46, 40484.84, 40471.00, 20823.11, 20830.64, 20858.33, 20851.67, 0.00, 0.00, 0.00
103, 40460.37, 40465.08, 40531.45, 40517.72, 20755.76, 20763.36, 20790.83, 20784.30, 0.00, 0.00, 0.00
104, 39871.02, 39875.76, 39943.10, 39928.84, 21173.09, 21180.96, 21208.21, 21202.15, 0.00, 0.00, 0.00
105, 39709.53, 39714.15, 39781.43, 39767.20, 21287.13, 21294.95, 21322.40, 21316.59, 0.00, 0.00, 0.00
106, 40251.54, 40256.07, 40322.68, 40308.84, 20878.36, 20885.65, 20913.54, 20906.88, 0.00, 0.00, 0.00
107, 40492.51, 40497.22, 40563.88, 40550.04, 20717.29, 20724.78, 20752.37, 20745.55, 0.00, 0.00, 0.00
108, 39960.07, 39964.83, 40031.84, 40017.80, 21101.21, 21109.14, 21136.57, 21130.36, 0.00, 0.00, 0.00
109, 39658.27, 39663.15, 39730.09, 39716.01, 21318.15, 21326.09, 21353.87, 21347.68, 0.06, 0.11, 0.99
110, 40150.53, 40155.22, 40221.89, 40207.81, 20957.58, 20964.95, 20993.09, 20986.28, 0.00, 0.00, 0.00
111, 40502.61, 40507.06, 40573.91, 40560.01, 20693.49, 20700.62, 20728.22, 20721.59, 0.00, 0.00, 0.00
112, 40011.95, 40016.19, 40083.40, 40069.43, 21033.97, 21041.48, 21069.25, 21062.61, 0.00, 0.00, 0.00
113, 39568.91, 39574.05, 39641.44, 39626.64, 21331.68, 21339.25, 21367.35, 21360.85, 0.00, 0.00, 0.00
114, 39960.74, 39965.81, 40032.44, 40018.32, 21047.10, 21054.92, 21082.68, 21076.08, 0.00, 0.00, 0.00
115, 40444.07, 40448.68, 40515.46, 40501.27, 20698.41, 20705.92, 20733.77, 20727.17, 0.00, 0.00, 0.00
116, 40124.38, 40129.34, 40196.21, 40182.02, 20940.52, 20948.12, 20975.46, 20969.02, 0.00, 0.00, 0.00
117, 39630.60, 39635.32, 39702.57, 39688.27, 21311.85, 21319.81, 21347.21, 21340.57, 0.00, 0.00, 0.00
118, 39903.03, 39907.50, 39974.62, 39960.58, 21124.92, 21132.59, 21160.53, 21153.42, 0.00, 0.00, 0.00
119, 40464.64, 40469.11, 40535.80, 40522.28, 20725.39, 20732.54, 20760.70, 20753.48, 0.06, 0.11, 0.99
120, 40243.73, 40248.23, 40315.19, 40301.22, 20870.00, 20877.62, 20905.50, 20898.59, 0.00, 0.00, 0.00
121, 39676.63, 39681.27, 39748.53, 39734.25, 21283.84, 21291.78, 21319.18, 21313.06, 0.00, 0.00, 0.00
122, 39812.16, 39816.79, 39883.80, 39869.45, 21188.85, 21196.52, 21224.21, 21217.68, 0.00, 0.00, 0.00
123, 40414.37, 40418.95, 40485.56, 40471.50, 20748.41, 20755.74, 20783.77, 20776.73, 0.00, 0.00, 0.00
124, 40352.86, 40357.53, 40424.27, 40410.30, 20786.72, 20794.03, 20822.04, 20815.02, 0.00, 0.00, 0.00
125, 39755.84, 39760.60, 39828.01, 39813.73, 21224.54, 21232.46, 21260.17, 21253.67, 0.00, 0.00, 0.00
126, 39703.69, 39708.16, 39775.57, 39760.87, 21277.29, 21285.03, 21313.17, 21306.64, 0.00, 0.00, 0.00
127, 40317.76, 40322.16, 40389.15, 40374.80, 20826.04, 20833.35, 20861.51, 20854.60, 0.00, 0.00, 0.00
128, 40431.64, 40436.14, 40502.84, 40488.66, 20739.71, 20746.73, 20774.29, 20767.65, 0.00, 0.00, 0.00
129, 39854.63, 39858.97, 39926.03, 39911.56, 21157.56, 21164.82, 21192.27, 21186.23, 0.06, 0.11, 0.99
130, 39676.89, 39681.74, 39748.53, 39734.09, 21294.48, 21302.37, 21329.78, 21323.59, 0.00, 0.00, 0.00
131, 40238.01, 40242.68, 40309.52, 40295.41, 20894.10, 20901.36, 20929.14, 20922.37, 0.00, 0.00, 0.00
132, 40485.89, 40490.32, 40557.06, 40543.20, 20711.10, 20717.90, 20745.95, 20738.66, 0.00, 0.00, 0.00
133, 39960.69, 39965.23, 40032.55, 40018.14, 21079.39, 21087.33, 21114.82, 21108.16, 0.00, 0.00, 0.00
134, 39658.23, 39663.13, 39730.25, 39715.65, 21311.36, 21319.12, 21346.52, 21340.46, 0.00, 0.00, 0.00
135, 40144.04, 40148.74, 40215.30, 40201.38, 20967.68, 20975.17, 21002.84, 20996.40, 0.00, 0.00, 0.00
136, 40511.71, 40516.27, 40582.70, 40568.95, 20681.71, 20689.20, 20716.67, 20709.99, 0.00, 0.00, 0.00
137, 40070.39, 40074.98, 40141.90, 40127.91, 20990.88, 20998.64, 21026.17, 21019.58, 0.00, 0.00, 0.00
138, 39642.05, 39646.92, 39714.15, 39699.74, 21310.13, 21317.89, 21345.40, 21339.19, 0.00, 0.00, 0.00
139, 40031.13, 40035.64, 40102.43, 40088.39, 21037.69, 21044.84, 21072.87, 21066.36, 0.00, 0.00, 0.00
140, 40519.93, 40524.43, 40590.95, 40576.93, 20672.72, 20679.99, 20707.86, 20701.22, 0.06, 0.11, 0.99
141, 40195.66, 40200.26, 40267.40, 40252.74, 20911.76, 20919.22, 20946.82, 20940.37, 0.00, 0.00, 0.00
142, 39670.12, 39674.75, 39742.00, 39727.32, 21314.64, 21322.29, 21349.56, 21343.48, 0.00, 0.00, 0.00
143, 39910.36, 39914.94, 39981.93, 39967.40, 21148.50, 21156.28, 21183.82, 21177.49, 0.00, 0.00, 0.00
144, 40502.05, 40506.37, 40573.13, 40559.18, 20726.95, 20734.33, 20762.06, 20755.38, 0.00, 0.00, 0.00
145, 40322.30, 40326.99, 40393.98, 40379.61, 20848.32, 20855.70, 20883.55, 20876.82, 0.00, 0.00, 0.00
146, 39752.75, 39757.72, 39824.64, 39810.47, 21260.82, 21268.49, 21296.09, 21289.57, 0.00, 0.00, 0.00
147, 39840.64, 39845.58, 39912.30, 39898.33, 21191.60, 21199.47, 21226.94, 21220.32, 0.00, 0.00, 0.00
148, 40438.80, 40443.69, 40510.17, 40496.44, 20756.30, 20763.43, 20791.50, 20784.53, 0.00, 0.00, 0.00
149, 40417.07, 40421.79, 40488.51, 40474.67, 20776.15, 20783.23, 20810.95, 20804.47, 0.00, 0.00, 0.00
150, 39818.36, 39822.83, 39889.79, 39875.82, 21213.17, 21220.86, 21248.15, 21242.16, 0.07, 0.12, 0.99
151, 39778.68, 39783.24, 39850.32, 39836.15, 21250.70, 21258.32, 21285.86, 21279.55, 0.00, 0.00, 0.00
152, 40370.51, 40375.21, 40441.59, 40427.66, 20811.40, 20818.59, 20846.44, 20839.51, 0.00, 0.00, 0.00
153, 40501.70, 40506.41, 40572.89, 40558.89, 20714.50, 20721.59, 20749.39, 20742.44, 0.00, 0.00, 0.00
154, 39927.79, 39932.66, 39999.52, 39985.17, 21129.42, 21137.06, 21164.66, 21158.12, 0.00, 0.00, 0.00
155, 39731.86, 39736.89, 39804.01, 39789.70, 21278.50, 21286.37, 21313.82, 21307.56, 0.00, 0.00, 0.00
156, 40246.86, 40251.87, 40318.61, 40304.17, 20907.46, 20914.82, 20942.44, 20935.83, 0.00, 0.00, 0.00
157, 40539.40, 40544.03, 40610.91, 40596.80, 20686.92, 20694.16, 20721.72, 20715.15, 0.00, 0.00, 0.00
158, 40031.95, 40036.76, 40103.75, 40089.89, 21054.67, 21061.94, 21089.47, 21083.24, 0.00, 0.00, 0.00
159, 39700.96, 39705.57, 39772.67, 39758.59, 21299.94, 21307.78, 21335.37, 21328.75, 0.00, 0.00, 0.00
160, 40172.45, 40176.99, 40243.84, 40229.88, 20963.50, 20970.81, 20998.35, 20992.11, 0.06, 0.11, 0.99
161, 40562.56, 40567.48, 40633.84, 40619.69, 20671.43, 20678.47, 20706.12, 20699.41, 0.00, 0.00, 0.00
162, 40134.77, 40139.39, 40206.32, 40192.32, 20979.08, 20986.63, 21013.84, 21007.58, 0.00, 0.00, 0.00
163, 39702.02, 39706.78, 39773.90, 39759.68, 21300.38, 21308.12, 21335.59, 21329.46, 0.00, 0.00, 0.00
164, 40072.50, 40077.32, 40144.13, 40130.12, 21035.63, 21043.36, 21070.79, 21064.48, 0.00, 0.00, 0.00
165, 40564.23, 40568.48, 40635.18, 40621.14, 20673.51, 20680.84, 20708.58, 20701.60, 0.00, 0.00, 0.00
166, 40267.80, 40272.48, 40339.33, 40325.25, 20890.52, 20898.34, 20925.61, 20918.84, 0.00, 0.00, 0.00
167, 39735.95, 39740.98, 39807.98, 39793.73, 21272.24, 21280.38, 21307.27, 21300.97, 0.00, 0.00, 0.00
168, 39951.06, 39956.18, 40022.83, 40009.06, 21117.32, 21124.77, 21152.35, 21145.42, 0.00, 0.00, 0.00
169, 40525.37, 40529.66, 40596.55, 40582.90, 20698.99, 20706.01, 20733.95, 20727.17, 0.00, 0.00, 0.00
170, 40380.19, 40384.37, 40451.38, 40437.32, 20801.56, 20809.00, 20836.61, 20829.95, 0.06, 0.10, 0.99
171, 39793.82, 39798.80, 39866.04, 39851.55, 21223.23, 21230.98, 21258.50, 21252.13, 0.00, 0.00, 0.00
172, 39859.21, 39864.09, 39931.39, 39916.75, 21188.42, 21196.27, 21223.61, 21217.35, 0.00, 0.00, 0.00
173, 40432.05, 40436.61, 40503.24, 40489.02, 20768.73, 20775.95, 20803.73, 20797.09, 0.00, 0.00, 0.00
174, 40431.60, 40436.41, 40503.28, 40489.18, 20755.54, 20762.58, 20790.45, 20783.70, 0.00, 0.00, 0.00
175, 39840.73, 39846.10, 39912.93, 39898.51, 21184.60, 21192.11, 21219.52, 21213.12, 0.00, 0.00, 0.00
176, 39764.94, 39770.17, 39836.82, 39822.34, 21248.37, 21256.13, 21283.42, 21277.23, 0.00, 0.00, 0.00
177, 40355.00, 40359.43, 40426.28, 40412.31, 20819.13, 20826.62, 20854.27, 20847.67, 0.00, 0.00, 0.00
178, 40510.12, 40514.52, 40581.34, 40567.59, 20705.63, 20712.82, 20740.52, 20733.88, 0.00, 0.00, 0.00
179, 39949.81, 39954.50, 40021.78, 40007.59, 21121.01, 21128.41, 21156.06, 21149.55, 0.00, 0.00, 0.00
180, 39733.60, 39738.11, 39805.50, 39791.20, 21290.68, 21298.51, 21325.93, 21319.94, 0.00, 0.00, 0.00
181, 40273.02, 40277.26, 40344.14, 40330.10, 20895.28, 20902.61, 20929.97, 20923.56, 0.06, 0.11, 0.99
182, 40576.59, 40581.29, 40647.85, 40634.00, 20669.60, 20676.77, 20704.40, 20697.40, 0.00, 0.00, 0.00
183, 40076.34, 40081.21, 40148.05, 40134.14, 21032.07, 21039.50, 21067.12, 21060.64, 0.00, 0.00, 0.00
184, 39715.85, 39720.70, 39787.63, 39773.63, 21296.92, 21304.54, 21332.26, 21325.87, 0.00, 0.00, 0.00
185, 40172.97, 40177.44, 40243.96, 40230.21, 20971.41, 20979.10, 21006.82, 20999.87, 0.00, 0.00, 0.00
186, 40544.07, 40548.66, 40615.31, 40601.45, 20689.71, 20697.07, 20724.80, 20717.56, 0.00, 0.00, 0.00
187, 40151.18, 40155.89, 40223.30, 40208.84, 20966.58, 20973.94, 21001.34, 20995.02, 0.00, 0.00, 0.00
188, 39704.68, 39709.26, 39776.65, 39762.05, 21294.93, 21302.78, 21329.89, 21323.81, 0.00, 0.00, 0.00
189, 40044.96, 40049.39, 40116.11, 40101.91, 21049.55, 21057.35, 21084.56, 21078.23, 0.00, 0.00, 0.00
190, 40550.55, 40555.05, 40621.50, 40607.71, 20669.91, 20677.42, 20705.11, 20698.01, 0.00, 0.00, 0.00
191, 40273.50, 40278.13, 40345.01, 40330.46, 20868.17, 20875.70, 20903.31, 20896.31, 0.07, 0.12, 0.98
192, 39733.33, 39738.00, 39805.26, 39790.55, 21271.66, 21279.78, 21306.84, 21300.50, 0.00, 0.00, 0.00
193, 39927.34, 39931.88, 39998.76, 39984.41, 21137.89, 21145.98, 21173.20, 21166.63, 0.00, 0.00, 0.00
194, 40498.88, 40503.28, 40570.07, 40556.08, 20715.30, 20722.95, 20750.55, 20743.38, 0.00, 0.00, 0.00
195, 40364.63, 40369.28, 40436.56, 40422.26, 20802.23, 20809.65, 20837.37, 20830.55, 0.00, 0.00, 0.00
196, 39787.63, 39792.45, 39860.07, 39845.80, 21228.68, 21236.15, 21263.91, 21257.27, 0.00, 0.00, 0.00
197, 39838.63, 39843.50, 39910.63, 39896.05, 21198.86, 21206.82, 21234.36, 21227.88, 0.00, 0.00, 0.00
198, 40439.02, 40443.40, 40510.14, 40496.09, 20762.87, 20770.07, 20797.85, 20791.32, 0.00, 0.00, 0.00
199, 40461.77, 40466.65, 40533.41, 40519.53, 20733.03, 20740.09, 20768.21, 20761.53, 0.00, 0.00, 0.00
200, 39879.18, 39883.85, 39951.28, 39936.71, 21167.39, 21175.04, 21202.48, 21196.11, 0.00, 0.00, 0.00
201, 39775.80, 39779.93, 39847.23, 39832.71, 21245.13, 21252.96, 21280.29, 21273.88, 0.06, 0.11, 0.98
202, 40342.62, 40347.04, 40413.72, 40400.02, 20825.63, 20833.30, 20860.61, 20853.98, 0.00, 0.00, 0.00
203, 40486.38, 40491.14, 40557.77, 40544.03, 20705.63, 20713.14, 20740.81, 20734.06, 0.00, 0.00, 0.00
204, 39924.26, 39928.77, 39996.37, 39981.93, 21105.99, 21113.86, 21141.53, 21134.85, 0.00, 0.00, 0.00
205, 39687.71, 39692.50, 39759.93, 39745.38, 21290.77, 21298.24, 21326.00, 21319.38, 0.00, 0.00, 0.00
206, 40222.63, 40227.53, 40294.18, 40280.10, 20907.96, 20915.13, 20942.89, 20936.14, 0.00, 0.00, 0.00
207, 40532.56, 40536.99, 40603.93, 40589.78, 20674.92, 20681.89, 20709.79, 20703.04, 0.00, 0.00, 0.00
208, 40035.23, 40039.77, 40106.94, 40092.64, 21030.51, 21038.09, 21065.47, 21058.76, 0.00, 0.00, 0.00
209, 39663.06, 39668.00, 39735.05, 39720.64, 21305.68, 21313.37, 21340.95, 21334.56, 0.00, 0.00, 0.00
210, 40083.02, 40087.47, 40154.41, 40140.67, 20981.92, 20989.14, 21016.83, 21010.37, 0.00, 0.00, 0.00
211, 40472.13, 40476.57, 40543.18, 40529.68, 20654.71, 20661.88, 20689.76, 20683.07, 0.06, 0.12, 0.99
212, 40038.75, 40043.46, 40110.76, 40096.52, 20929.08, 20936.41, 20964.44, 20957.73, 0.00, 0.00, 0.00
213, 39550.63, 39555.21, 39622.80, 39608.47, 21285.03, 21292.99, 21321.08, 21314.53, 0.00, 0.00, 0.00
214, 39848.75, 39853.50, 39920.50, 39906.11, 21059.50, 21067.14, 21095.49, 21088.40, 0.00, 0.00, 0.00
215, 40336.49, 40341.25, 40407.93, 40393.69, 20669.19, 20676.23, 20704.62, 20697.69, 0.00, 0.00, 0.00
216, 40021.38, 40026.47, 40093.17, 40079.16, 20874.65, 20882.29, 20909.92, 20903.87, 0.00, 0.00, 0.00
217, 39494.19, 39498.95, 39566.07, 39552.13, 21256.31, 21264.26, 21291.94, 21285.52, 0.00, 0.00, 0.00
218, 39654.45, 39659.05, 39726.25, 39712.25, 21127.49, 21135.27, 21163.30, 21156.44, 0.00, 0.00, 0.00
219, 40216.71, 40221.83, 40288.48, 40274.63, 20710.19, 20717.25, 20745.41, 20738.46, 0.00, 0.00, 0.00
220, 40125.38, 40130.07, 40196.91, 40182.98, 20783.05, 20790.50, 20818.53, 20812.02, 0.00, 0.00, 0.00
221, 39563.21, 39567.59, 39635.05, 39620.68, 21203.62, 21211.45, 21239.16, 21232.99, 0.07, 0.12, 1.00
222, 39609.32, 39614.04, 39681.12, 39666.70, 21191.26, 21198.82, 21226.62, 21220.34, 0.00, 0.00, 0.00
223, 40219.41, 40224.06, 40290.54, 40276.70, 20754.26, 20761.73, 20789.80, 20783.01, 0.00, 0.00, 0.00
224, 40262.62, 40266.91, 40333.92, 40319.84, 20719.08, 20726.46, 20754.51, 20747.49, 0.00, 0.00, 0.00
225, 39654.52, 39659.13, 39726.54, 39712.19, 21148.06, 21155.79, 21183.60, 21176.96, 0.00, 0.00, 0.00
226, 39471.17, 39476.06, 39542.89, 39528.37, 21236.39, 21244.24, 21272.20, 21265.65, 0.00, 0.00, 0.00
227, 39994.89, 39999.47, 40066.21, 40051.91, 20812.92, 20820.45, 20848.81, 20841.95, 0.00, 0.00, 0.00
228, 40179.88, 40184.30, 40251.27, 40237.12, 20665.21, 20672.68, 20701.00, 20694.12, 0.00, 0.00, 0.00
229, 39642.58, 39647.43, 39714.58, 39700.14, 21068.93, 21077.18, 21104.87, 21098.32, 0.00, 0.00, 0.00
230, 39387.77, 39392.63, 39459.57, 39444.79, 21260.76, 21269.09, 21296.92, 21290.44, 0.00, 0.00, 0.00
231, 39893.93, 39898.51, 39965.12, 39950.70, 20888.55, 20896.15, 20924.47, 20917.48, 0.00, 0.00, 0.00
232, 40236.56, 40241.16, 40308.00, 40293.93, 20652.86, 20660.21, 20688.68, 20681.64, 0.07, 0.11, 0.99
233, 39770.41, 39775.26, 39842.23, 39828.19, 21004.80, 21012.34, 21040.54, 21033.95, 0.00, 0.00, 0.00
234, 39403.46, 39408.52, 39475.32, 39461.29, 21281.79, 21289.37, 21317.10, 21311.14, 0.00, 0.00, 0.00
235, 39846.36, 39851.28, 39917.75, 39903.85, 20971.81, 20978.77, 21007.13, 21000.45, 0.00, 0.00, 0.00
236, 40307.97, 40312.84, 40379.39, 40365.66, 20641.19, 20648.14, 20676.44, 20669.73, 0.00, 0.00, 0.00
237, 39944.78, 39949.81, 40016.84, 40002.89, 20907.51, 20914.91, 20942.87, 20936.16, 0.00, 0.00, 0.00
238, 39472.35, 39477.23, 39544.41, 39530.18, 21266.30, 21273.96, 21301.73, 21295.49, 0.00, 0.00, 0.00
239, 39773.09, 39777.57, 39844.55, 39830.41, 21048.66, 21056.21, 21084.06, 21077.47, 0.00, 0.00, 0.00
240, 40294.89, 40299.84, 40366.38, 40352.34, 20654.75, 20662.09, 20690.21, 20683.32, 0.00, 0.00, 0.00
241, 40049.95, 40054.61, 40121.52, 40107.25, 20817.14, 20824.54, 20852.75, 20846.04, 0.00, 0.00, 0.00
242, 39509.75, 39514.33, 39581.54, 39567.41, 21222.11, 21229.71, 21257.83, 21251.37, 0.07, 0.11, 0.98
243, 39679.57, 39684.14, 39751.10, 39737.18, 21116.29, 21123.76, 21151.79, 21145.22, 0.00, 0.00, 0.00
244, 40269.10, 40274.13, 40340.49, 40326.32, 20690.41, 20697.89, 20726.06, 20719.02, 0.00, 0.00, 0.00
245, 40181.53, 40186.54, 40253.30, 40238.93, 20746.40, 20754.00, 20781.64, 20774.76, 0.00, 0.00, 0.00
246, 39538.76, 39543.54, 39610.84, 39596.43, 21197.75, 21205.61, 21232.99, 21227.00, 0.00, 0.00, 0.00
247, 39558.47, 39563.35, 39630.11, 39616.16, 21185.77, 21193.48, 21221.21, 21215.09, 0.00, 0.00, 0.00
248, 40164.95, 40169.64, 40236.25, 40222.39, 20748.92, 20755.90, 20784.24, 20777.49, 0.00, 0.00, 0.00
249, 40239.11, 40243.51, 40310.12, 40296.24, 20694.21, 20701.56, 20729.83, 20723.20, 0.00, 0.00, 0.00
250, 39648.51, 39653.09, 39720.23, 39705.93, 21119.56, 21127.40, 21155.03, 21148.59, 0.00, 0.00, 0.00
251, 39508.03, 39512.59, 39579.71, 39565.36, 21233.20, 21240.73, 21268.64, 21262.41, 0.00, 0.00, 0.00
252, 40090.56, 40095.21, 40161.64, 40147.93, 20819.08, 20826.04, 20854.40, 20847.90, 0.07, 0.11, 0.99
253, 40311.82, 40316.22, 40382.56, 40368.93, 20657.08, 20664.25, 20692.24, 20685.82, 0.00, 0.00, 0.00
254, 39764.73, 39769.27, 39836.11, 39822.29, 21048.70, 21056.44, 21083.93, 21077.69, 0.00, 0.00, 0.00
255, 39482.84, 39487.69, 39554.47, 39540.35, 21261.60, 21269.36, 21297.08, 21290.75, 0.00, 0.00, 0.00
0, 39995.41, 40000.14, 40066.86, 40052.18, 20900.20, 20907.53, 20935.56, 20929.05, 0.00, 0.00, 0.00
1, 40353.70, 40358.75, 40425.12, 40411.15, 20636.98, 20644.14, 20671.92, 20665.44, 0.00, 0.00, 0.00
2, 39888.99, 39893.73, 39960.58, 39946.43, 20966.74, 20974.36, 21002.08, 20995.44, 0.00, 0.00, 0.00
3, 39487.69, 39492.16, 39559.05, 39544.95, 21255.90, 21263.62, 21291.33, 21284.92, 0.00, 0.00, 0.00
4, 39910.22, 39914.94, 39981.59, 39967.38, 20967.97, 20975.23, 21003.06, 20996.42, 0.00, 0.00, 0.00
5, 40371.05, 40375.52, 40442.21, 40428.29, 20619.37, 20626.48, 20654.67, 20647.74, 0.00, 0.00, 0.00
6, 39996.59, 40001.15, 40068.05, 40054.01, 20870.14, 20877.38, 20905.54, 20898.97, 0.06, 0.11, 0.99
7, 39477.80, 39482.30, 39549.64, 39535.29, 21256.24, 21264.09, 21291.89, 21285.61, 0.00, 0.00, 0.00
8, 39758.12, 39762.97, 39829.58, 39815.81, 21071.12, 21078.66, 21106.51, 21100.02, 0.00, 0.00, 0.00
9, 40330.05, 40334.70, 40400.98, 40387.23, 20665.60, 20672.64, 20700.93, 20693.98, 0.00, 0.00, 0.00
10, 40139.35, 40143.91, 40211.08, 40196.88, 20801.72, 20808.89, 20836.77, 20830.10, 0.00, 0.00, 0.00
11, 39572.89, 39577.52, 39644.98, 39630.60, 21213.23, 21220.97, 21248.48, 21242.25, 0.00, 0.00, 0.00
12, 39696.61, 39701.48, 39768.18, 39754.05, 21130.76, 21138.63, 21166.19, 21159.52, 0.00, 0.00, 0.00
13, 40290.34, 40294.94, 40361.46, 40347.49, 20714.01, 20721.21, 20749.06, 20742.44, 0.00, 0.00, 0.00
14, 40226.12, 40230.64, 40297.22, 40283.41, 20750.04, 20757.19, 20784.91, 20778.74, 0.00, 0.00, 0.00
15, 39617.15, 39622.29, 39688.79, 39674.93, 21159.14, 21166.95, 21193.92, 21188.18, 0.00, 0.00, 0.00
16, 39581.05, 39586.35, 39652.73, 39638.76, 21162.92, 21170.70, 21198.37, 21191.96, 0.06, 0.11, 0.99
17, 40180.57, 40185.30, 40251.73, 40238.04, 20720.94, 20728.43, 20756.39, 20749.55, 0.00, 0.00, 0.00
18, 40278.78, 40283.34, 40350.08, 40336.16, 20650.06, 20657.24, 20685.13, 20678.22, 0.00, 0.00, 0.00
19, 39693.55, 39698.44, 39765.52, 39751.10, 21074.86, 21082.23, 21109.84, 21103.42, 0.00, 0.00, 0.00
20, 39494.04, 39498.46, 39565.56, 39551.19, 21234.58, 21242.22, 21270.03, 21263.64, 0.00, 0.00, 0.00
21, 40074.57, 40079.47, 40145.74, 40131.84, 20821.74, 20829.23, 20857.15, 20850.18, 0.00, 0.00, 0.00
22, 40328.00, 40332.69, 40399.12, 40385.27, 20628.92, 20636.07, 20663.99, 20657.06, 0.00, 0.00, 0.00
23, 39788.07, 39792.70, 39859.95, 39845.61, 21003.93, 21011.06, 21039.05, 21032.50, 0.00, 0.00, 0.00
24, 39484.89, 39489.90, 39556.73, 39542.61, 21231.21, 21238.83, 21266.83, 21260.46, 0.00, 0.00, 0.00
25, 39985.44, 39989.75, 40055.96, 40042.14, 20883.35, 20890.79, 20918.73, 20912.11, 0.00, 0.00, 0.00
26, 40356.39, 40360.86, 40427.31, 40413.29, 20608.62, 20615.64, 20643.60, 20636.76, 0.00, 0.00, 0.00
27, 39882.75, 39887.56, 39954.43, 39940.29, 20927.42, 20934.87, 20962.49, 20956.14, 0.06, 0.12, 0.98
28, 39459.46, 39464.37, 39531.61, 39517.32, 21244.37, 21251.97, 21279.38, 21273.41, 0.00, 0.00, 0.00
29, 39856.42, 39861.23, 39927.97, 39913.60, 20972.48, 20979.97, 21007.82, 21001.43, 0.00, 0.00, 0.00
30, 40337.34, 40342.06, 40408.24, 40394.16, 20617.27, 20624.15, 20652.47, 20645.75, 0.00, 0.00, 0.00
31, 40007.23, 40011.48, 40078.33, 40064.14, 20852.84, 20860.35, 20888.26, 20881.63, 0.00, 0.00, 0.00
32, 39476.20, 39480.62, 39547.92, 39533.55, 21232.21, 21239.77, 21267.73, 21261.04, 0.00, 0.00, 0.00
33, 39733.24, 39738.07, 39804.88, 39790.73, 21056.71, 21064.78, 21092.42, 21085.67, 0.00, 0.00, 0.00
34, 40297.82, 40302.54, 40369.26, 40355.20, 20637.39, 20644.88, 20672.95, 20665.88, 0.00, 0.00, 0.00
35, 40117.04, 40121.78, 40188.64, 40174.71, 20765.31, 20772.50, 20800.51, 20793.85, 0.00, 0.00, 0.00
36, 39541.20, 39545.96, 39613.05, 39598.86, 21183.40, 21190.86, 21218.53, 21212.43, 0.00, 0.00, 0.00
37, 39624.95, 39629.75, 39696.47, 39682.30, 21129.19, 21136.77, 21164.46, 21158.07, 0.06, 0.11, 0.98
38, 40229.74, 40234.39, 40300.86, 40286.98, 20693.67, 20700.69, 20728.96, 20721.99, 0.00, 0.00, 0.00
39, 40213.52, 40218.14, 40284.86, 40270.98, 20706.16, 20712.98, 20741.35, 20734.37, 0.00, 0.00, 0.00
40, 39607.47, 39612.59, 39679.42, 39665.43, 21136.66, 21144.12, 21171.88, 21165.38, 0.00, 0.00, 0.00
41, 39561.96, 39566.81, 39633.46, 39619.23, 21179.37, 21186.95, 21214.93, 21208.21, 0.00, 0.00, 0.00
42, 40167.89, 40172.77, 40238.70, 40224.76, 20740.43, 20747.76, 20775.95, 20769.13, 0.00, 0.00, 0.00
43, 40285.71, 40290.49, 40356.61, 40342.84, 20644.67, 20651.85, 20680.08, 20672.99, 0.00, 0.00, 0.00
44, 39699.91, 39704.50, 39771.48, 39757.47, 21067.14, 21074.79, 21102.46, 21095.93, 0.00, 0.00, 0.00
45, 39512.61, 39517.44, 39584.58, 39570.01, 21219.94, 21227.74, 21255.48, 21249.11, 0.00, 0.00, 0.00
46, 40080.79, 40085.86, 40152.20, 40138.01, 20810.28, 20817.50, 20845.50, 20838.82, 0.00, 0.00, 0.00
47, 40363.47, 40368.14, 40434.73, 40420.54, 20604.17, 20611.55, 20639.51, 20632.87, 0.06, 0.12, 0.98
48, 39841.67, 39846.54, 39913.35, 39899.34, 20979.86, 20987.53, 21015.13, 21008.65, 0.00, 0.00, 0.00
49, 39515.87, 39520.74, 39587.57, 39573.43, 21215.78, 21223.52, 21250.83, 21244.51, 0.00, 0.00, 0.00
50, 39959.46, 39964.31, 40030.99, 40016.71, 20895.08, 20902.41, 20930.20, 20923.87, 0.00, 0.00, 0.00
51, 40354.87, 40359.40, 40425.90, 40412.04, 20603.70, 20610.99, 20638.88, 20631.96, 0.00, 0.00, 0.00
52, 39912.46, 39917.15, 39983.83, 39969.84, 20909.50, 20916.96, 20944.39, 20938.20, 0.00, 0.00, 0.00
53, 39474.95, 39479.68, 39546.71, 39532.28, 21227.32, 21235.01, 21262.50, 21256.38, 0.00, 0.00, 0.00
54, 39844.91, 39849.96, 39916.26, 39902.15, 20958.07, 20965.91, 20993.34, 20987.10, 0.00, 0.00, 0.00
55, 40337.03, 40341.63, 40407.73, 40393.94, 20592.86, 20600.37, 20627.98, 20621.34, 0.00, 0.00, 0.00
56, 40026.79, 40031.08, 40098.00, 40083.88, 20822.28, 20829.86, 20857.35, 20850.69, 0.00, 0.00, 0.00
57, 39511.65, 39516.59, 39583.57, 39569.05, 21204.25, 21211.94, 21239.41, 21232.86, 0.05, 0.11, 0.99
58, 39747.61, 39752.55, 39819.07, 39804.84, 21036.30, 21043.85, 21071.59, 21065.02, 0.00, 0.00, 0.00
59, 40311.91, 40316.55, 40382.80, 40369.26, 20625.50, 20632.63, 20660.57, 20653.86, 0.00, 0.00, 0.00
60, 40143.55, 40148.29, 40214.92, 40201.27, 20740.99, 20748.30, 20776.04, 20769.55, 0.00, 0.00, 0.00
61, 39550.00, 39555.07, 39622.22, 39607.96, 21163.75, 21171.39, 21198.80, 21192.76, 0.00, 0.00, 0.00
62, 39639.05, 39643.86, 39710.69, 39696.79, 21115.76, 21122.91, 21151.21, 21144.39, 0.00, 0.00, 0.00
63, 40241.54, 40245.84, 40312.49, 40298.52, 20680.01, 20687.07, 20715.35, 20708.24, 0.00, 0.00, 0.00
64, 40233.79, 40238.64, 40305.47, 40291.23, 20672.90, 20680.24, 20708.26, 20701.27, 0.00, 0.00, 0.00
65, 39639.01, 39644.37, 39711.34, 39697.10, 21102.26, 21109.95, 21137.78, 21131.43, 0.00, 0.00, 0.00
66, 39565.05, 39570.23, 39637.00, 39622.82, 21156.98, 21164.78, 21192.72, 21186.30, 0.00, 0.00, 0.00
67, 40129.14, 40133.65, 40200.37, 40186.34, 20744.18, 20752.16, 20779.52, 20772.91, 0.06, 0.12, 0.98
68, 40272.37, 40276.75, 40343.49, 40329.61, 20639.29, 20646.73, 20674.56, 20667.63, 0.00, 0.00, 0.00
69, 39726.67, 39731.32, 39798.35, 39784.29, 21055.41, 21063.26, 21090.57, 21083.73, 0.00, 0.00, 0.00
70, 39502.48, 39507.47, 39574.14, 39560.11, 21208.70, 21216.41, 21243.83, 21237.73, 0.00, 0.00, 0.00
71, 40035.08, 40039.82, 40106.05, 40092.08, 20813.70, 20820.85, 20849.06, 20842.20, 0.00, 0.00, 0.00
72, 40296.46, 40301.07, 40367.61, 40353.64, 20602.25, 20609.56, 20637.57, 20630.53, 0.00, 0.00, 0.00
73, 39779.46, 39784.34, 39851.10, 39837.00, 20964.59, 20972.19, 21000.00, 20993.29, 0.00, 0.00, 0.00
74, 39464.71, 39469.63, 39536.82, 39522.31, 21221.77, 21229.24, 21257.04, 21250.90, 0.00, 0.00, 0.00
75, 39911.05, 39916.01, 39982.60, 39968.29, 20885.16, 20892.38, 20920.29, 20913.77, 0.00, 0.00, 0.00
76, 40310.70, 40315.32, 40381.84, 40367.76, 20582.16, 20589.49, 20617.38, 20610.65, 0.00, 0.00, 0.00
77, 39903.03, 39908.19, 39974.95, 39960.96, 20872.59, 20879.97, 20907.69, 20901.29, 0.00, 0.00, 0.00
78, 39473.94, 39479.13, 39546.00, 39531.70, 21203.54, 21210.89, 21238.87, 21232.55, 0.05, 0.12, 0.97
79, 39841.22, 39846.32, 39913.20, 39898.62, 20957.02, 20964.51, 20992.62, 20985.81, 0.00, 0.00, 0.00
80, 40307.30, 40312.38, 40379.01, 40364.97, 20612.04, 20619.17, 20647.13, 20640.18, 0.00, 0.00, 0.00
81, 40005.73, 40010.27, 40077.55, 40063.36, 20811.28, 20818.44, 20846.31, 20839.78, 0.00, 0.00, 0.00
82, 39476.38, 39480.82, 39548.48, 39533.95, 21194.30, 21201.77, 21229.64, 21223.27, 0.00, 0.00, 0.00
83, 39707.18, 39711.79, 39778.46, 39764.45, 21048.68, 21055.90, 21083.77, 21077.20, 0.00, 0.00, 0.00
84, 40304.73, 40309.38, 40375.83, 40361.95, 20634.04, 20641.05, 20669.02, 20662.00, 0.00, 0.00, 0.00
85, 40176.59, 40181.24, 40248.00, 40233.61, 20733.72, 20740.85, 20768.64, 20761.95, 0.00, 0.00, 0.00
86, 39584.71, 39589.48, 39656.71, 39642.45, 21163.73, 21171.33, 21198.75, 21192.34, 0.00, 0.00, 0.00
87, 39625.33, 39630.11, 39696.99, 39682.57, 21117.10, 21124.83, 21152.19, 21145.96, 0.00, 0.00, 0.00
88, 40225.00, 40229.54, 40295.88, 40282.16, 20678.56, 20685.82, 20713.43, 20707.08, 0.06, 0.12, 0.97
89, 40226.70, 40231.60, 40298.20, 40284.35, 20658.55, 20665.95, 20693.63, 20686.79, 0.00, 0.00, 0.00
90, 39614.04, 39618.98, 39685.83, 39671.42, 21087.10, 21094.66, 21122.20, 21115.58, 0.00, 0.00, 0.00
91, 39537.84, 39542.43, 39609.28, 39594.91, 21163.66, 21171.35, 21198.91, 21192.61, 0.00, 0.00, 0.00
92, 40133.79, 40138.52, 40204.82, 40190.87, 20739.04, 20746.17, 20773.91, 20767.25, 0.00, 0.00, 0.00
93, 40308.98, 40313.89, 40380.53, 40366.55, 20612.89, 20620.11, 20647.96, 20641.01, 0.00, 0.00, 0.00
94, 39748.06, 39752.71, 39819.65, 39805.66, 21012.00, 21019.47, 21047.27, 21040.59, 0.00, 0.00, 0.00
95, 39509.86, 39514.73, 39581.45, 39567.23, 21184.51, 21191.93, 21219.58, 21213.44, 0.00, 0.00, 0.00
96, 40048.74, 40053.45, 40119.95, 40105.71, 20810.01, 20817.25, 20844.97, 20838.60, 0.00, 0.00, 0.00
97, 40347.71, 40352.32, 40418.95, 40405.23, 20596.51, 20603.72, 20631.73, 20624.83, 0.00, 0.00, 0.00
98, 39824.48, 39829.13, 39896.14, 39882.13, 20950.15, 20957.91, 20985.18, 20978.94, 0.06, 0.12, 0.98
99, 39446.00, 39450.52, 39517.75, 39503.36, 21211.34, 21219.34, 21246.72, 21240.28, 0.00, 0.00, 0.00
100, 39875.36, 39879.89, 39946.43, 39932.33, 20899.44, 20906.99, 20934.75, 20927.98, 0.00, 0.00, 0.00
101, 40296.02, 40300.51, 40366.91, 40353.08, 20585.31, 20592.46, 20620.29, 20613.22, 0.00, 0.00, 0.00
102, 39890.31, 39895.25, 39962.26, 39947.80, 20858.09, 20865.67, 20893.22, 20886.50, 0.00, 0.00, 0.00
103, 39414.64, 39419.38, 39486.97, 39472.15, 21209.37, 21217.26, 21244.73, 21238.34, 0.00, 0.00, 0.00
104, 39738.98, 39743.50, 39810.60, 39796.18, 20980.98, 20988.87, 21016.63, 21009.99, 0.00, 0.00, 0.00
105, 40252.27, 40256.92, 40323.20, 40309.43, 20595.88, 20603.37, 20631.44, 20624.31, 0.00, 0.00, 0.00
106, 39994.58, 39999.29, 40066.08, 40051.84, 20779.07, 20786.56, 20814.19, 20807.35, 0.00, 0.00, 0.00
107, 39463.08, 39468.26, 39534.85, 39520.70, 21173.43, 21181.16, 21208.83, 21202.26, 0.00, 0.00, 0.00
108, 39634.98, 39639.45, 39706.33, 39692.47, 21047.99, 21055.59, 21083.46, 21076.82, 0.06, 0.11, 0.99
109, 40208.80, 40213.22, 40279.99, 40266.13, 20625.61, 20632.76, 20660.63, 20653.77, 0.00, 0.00, 0.00
110, 40059.27, 40064.23, 40130.68, 40116.84, 20723.96, 20731.26, 20759.49, 20752.61, 0.00, 0.00, 0.00
111, 39463.68, 39468.48, 39535.68, 39521.01, 21158.27, 21166.01, 21193.83, 21187.31, 0.00, 0.00, 0.00
112, 39518.57, 39523.31, 39590.04, 39576.00, 21144.30, 21151.99, 21179.64, 21173.34, 0.00, 0.00, 0.00
113, 40124.55, 40129.20, 40195.61, 40181.93, 20706.10, 20713.32, 20741.10, 20734.48, 0.00, 0.00, 0.00
114, 40158.93, 40164.05, 40230.41, 40216.60, 20671.03, 20678.51, 20706.28, 20699.64, 0.00, 0.00, 0.00
115, 39558.45, 39563.14, 39630.11, 39615.98, 21108.94, 21117.14, 21144.77, 21138.13, 0.00, 0.00, 0.00
116, 39435.38, 39440.28, 39506.73, 39492.69, 21205.26, 21213.19, 21240.88, 21234.36, 0.00, 0.00, 0.00
117, 40004.55, 40009.75, 40075.94, 40061.72, 20785.13, 20792.84, 20821.10, 20814.08, 0.00, 0.00, 0.00
118, 40127.53, 40132.38, 40198.92, 40184.93, 20635.42, 20642.75, 20671.07, 20663.99, 0.00, 0.00, 0.00
119, 39573.05, 39577.96, 39644.91, 39630.82, 21044.93, 21052.59, 21080.27, 21074.07, 0.06, 0.12, 0.98
120, 39319.04, 39324.16, 39390.84, 39376.93, 21236.86, 21244.91, 21272.29, 21266.14, 0.00, 0.00, 0.00
121, 39819.21, 39824.23, 39890.57, 39876.72, 20861.73, 20868.95, 20896.82, 20890.16, 0.00, 0.00, 0.00
122, 40122.23, 40126.99, 40193.09, 40179.34, 20614.97, 20622.14, 20650.13, 20643.20, 0.00, 0.00, 0.00
123, 39626.91, 39631.92, 39698.64, 39684.49, 20960.97, 20968.30, 20996.63, 20989.81, 0.00, 0.00, 0.00
124, 39283.43, 39288.00, 39355.34, 39340.93, 21244.26, 21251.90, 21279.75, 21273.34, 0.00, 0.00, 0.00
125, 39739.57, 39744.11, 39810.73, 39796.70, 20933.21, 20940.63, 20968.64, 20961.96, 0.00, 0.00, 0.00
126, 40189.95, 40194.85, 40260.99, 40247.24, 20607.73, 20614.63, 20642.93, 20636.09, 0.00, 0.00, 0.00
127, 39809.82, 39814.80, 39881.43, 39867.51, 20881.96, 20889.76, 20917.41, 20910.99, 0.00, 0.00, 0.00
128, 39313.36, 39317.88, 39384.73, 39370.56, 21252.11, 21259.93, 21287.85, 21281.47, 0.00, 0.00, 0.00
129, 39629.57, 39634.58, 39700.72, 39686.71, 21032.95, 21040.54, 21068.73, 21062.14, 0.04, 0.12, 0.99
130, 40173.32, 40178.24, 40244.27, 40230.41, 20641.08, 20648.47, 20676.66, 20669.95, 0.00, 0.00, 0.00
131, 39938.90, 39944.11, 40010.61, 39996.79, 20811.17, 20818.66, 20846.71, 20839.87, 0.00, 0.00, 0.00
132, 39382.66, 39387.82, 39454.79, 39440.68, 21203.98, 21212.01, 21239.81, 21233.38, 0.00, 0.00, 0.00
133, 39549.31, 39554.34, 39621.06, 39606.93, 21088.76, 21096.25, 21124.39, 21117.73, 0.00, 0.00, 0.00
134, 40143.89, 40148.49, 40214.68, 40200.84, 20669.13, 20676.01, 20704.42, 20697.51, 0.00, 0.00, 0.00
135, 40059.20, 40063.89, 40130.61, 40116.53, 20738.46, 20745.62, 20773.67, 20766.98, 0.00, 0.00, 0.00
136, 39471.97, 39476.91, 39544.06, 39529.80, 21169.18, 21176.69, 21204.52, 21198.17, 0.00, 0.00, 0.00
137, 39493.21, 39498.08, 39564.82, 39550.83, 21151.48, 21159.12, 21186.88, 21180.31, 0.00, 0.00, 0.00
138, 40100.53, 40105.31, 40171.52, 40157.48, 20713.32, 20720.56, 20748.61, 20741.66, 0.00, 0.00, 0.00
139, 40164.83, 40169.32, 40236.07, 40221.76, 20661.06, 20668.12, 20696.24, 20689.42, 0.05, 0.12, 1.00
140, 39545.91, 39550.47, 39617.53, 39603.33, 21103.06, 21110.62, 21138.38, 21131.92, 0.00, 0.00, 0.00
141, 39401.65, 39406.55, 39473.31, 39459.01, 21218.71, 21226.56, 21254.43, 21247.95, 0.00, 0.00, 0.00
142, 39988.07, 39992.81, 40059.04, 40045.45, 20793.25, 20800.51, 20828.52, 20821.57, 0.00, 0.00, 0.00
143, 40203.21, 40207.95, 40274.64, 40260.68, 20632.98, 20640.11, 20668.14, 20661.08, 0.00, 0.00, 0.00
144, 39664.13, 39669.32, 39736.17, 39722.00, 21034.64, 21042.22, 21070.29, 21063.43, 0.00, 0.00, 0.00
145, 39384.53, 39389.54, 39456.37, 39441.98, 21237.38, 21244.97, 21272.89, 21266.77, 0.00, 0.00, 0.00
146, 39895.76, 39900.50, 39966.71, 39952.69, 20868.48, 20875.97, 20904.13, 20897.56, 0.00, 0.00, 0.00
147, 40256.00, 40260.54, 40326.88, 40313.07, 20615.33, 20622.79, 20650.84, 20644.38, 0.00, 0.00, 0.00
148, 39798.35, 39803.27, 39870.04, 39855.75, 20946.87, 20954.63, 20982.52, 20975.79, 0.00, 0.00, 0.00
149, 39401.83, 39406.68, 39473.61, 39459.16, 21239.61, 21247.28, 21275.11, 21268.67, 0.06, 0.12, 0.99
150, 39808.99, 39813.93, 39880.23, 39866.14, 20941.82, 20949.15, 20977.04, 20970.65, 0.00, 0.00, 0.00
151, 40267.76, 40272.97, 40339.02, 40325.27, 20608.60, 20615.68, 20643.80, 20637.19, 0.00, 0.00, 0.00
152, 39907.92, 39912.79, 39979.40, 39965.72, 20866.72, 20874.20, 20902.19, 20895.73, 0.00, 0.00, 0.00
153, 39410.80, 39415.89, 39482.70, 39468.69, 21234.20, 21242.07, 21269.61, 21263.53, 0.00, 0.00, 0.00
154, 39684.45, 39689.12, 39755.57, 39741.71, 21031.65, 21039.23, 21067.37, 21060.80, 0.00, 0.00, 0.00
155, 40229.54, 40234.21, 40300.62, 40286.58, 20622.86, 20629.74, 20658.38, 20651.63, 0.00, 0.00, 0.00
156, 40009.06, 40013.89, 40080.50, 40066.24, 20781.96, 20788.87, 20816.80, 20810.46, 0.00, 0.00, 0.00
157, 39434.60, 39439.34, 39506.10, 39491.64, 21202.06, 21209.84, 21237.31, 21231.16, 0.00, 0.00, 0.00
158, 39546.87, 39551.66, 39618.15, 39604.14, 21120.79, 21128.86, 21156.51, 21150.23, 0.00, 0.00, 0.00
159, 40147.33, 40151.82, 40218.41, 40204.64, 20679.83, 20687.34, 20714.90, 20708.24, 0.06, 0.11, 0.99
160, 40086.13, 40091.09, 40157.70, 40143.69, 20727.67, 20734.97, 20762.56, 20755.85, 0.00, 0.00, 0.00
161, 39500.47, 39505.77, 39572.67, 39558.21, 21159.19, 21166.81, 21194.44, 21187.89, 0.00, 0.00, 0.00
162, 39488.13, 39493.05, 39559.77, 39545.49, 21174.01, 21181.38, 21209.44, 21202.64, 0.00, 0.00, 0.00
163, 40084.66, 40089.51, 40155.98, 40141.92, 20738.46, 20745.57, 20773.73, 20766.65, 0.00, 0.00, 0.00
164, 40160.03, 40164.65, 40231.37, 40217.18, 20666.82, 20674.16, 20702.47, 20695.12, 0.00, 0.00, 0.00
165, 39572.78, 39577.43, 39644.35, 39630.04, 21092.45, 21100.34, 21128.39, 21121.68, 0.00, 0.00, 0.00
166, 39416.47, 39421.08, 39487.71, 39473.65, 21211.38, 21219.11, 21247.10, 21240.55, 0.00, 0.00, 0.00
167, 39983.76, 39988.59, 40054.68, 40040.67, 20796.06, 20803.19, 20831.13, 20824.65, 0.00, 0.00, 0.00
168, 40214.99, 40219.75, 40286.40, 40272.30, 20623.87, 20630.57, 20659.07, 20652.29, 0.00, 0.00, 0.00
169, 39679.46, 39684.49, 39751.68, 39737.22, 21020.85, 21028.16, 21056.66, 21050.16, 0.00, 0.00, 0.00
170, 39366.41, 39371.23, 39438.45, 39423.83, 21257.49, 21265.20, 21293.08, 21287.02, 0.06, 0.11, 0.99
171, 39845.07, 39850.01, 39916.37, 39902.04, 20909.01, 20916.45, 20944.66, 20937.75, 0.00, 0.00, 0.00
172, 40225.23, 40230.14, 40296.26, 40282.45, 20621.67, 20628.74, 20656.79, 20650.06, 0.00, 0.00, 0.00
173, 39764.45, 39769.74, 39836.11, 39822.11, 20939.25, 20946.89, 20974.27, 20967.99, 0.00, 0.00, 0.00
174, 39351.83, 39356.77, 39423.87, 39409.34, 21249.56, 21257.27, 21284.76, 21278.66, 0.00, 0.00, 0.00
175, 39747.23, 39752.06, 39818.83, 39804.88, 20968.13, 20975.46, 21003.40, 20996.92, 0.00, 0.00, 0.00
176, 40224.24, 40229.09, 40295.37, 40281.66, 20620.94, 20628.16, 20656.25, 20649.46, 0.00, 0.00, 0.00
177, 39881.19, 39886.08, 39952.58, 39938.70, 20854.56, 20861.84, 20889.92, 20883.41, 0.00, 0.00, 0.00
178, 39375.82, 39380.93, 39447.65, 39433.01, 21228.10, 21236.08, 21263.68, 21257.58, 0.00, 0.00, 0.00
179, 39641.33, 39646.32, 39712.54, 39698.60, 21041.71, 21049.11, 21077.13, 21070.70, 0.00, 0.00, 0.00
180, 40194.56, 40199.01, 40265.30, 40251.45, 20641.66, 20648.96, 20676.93, 20670.11, 0.07, 0.11, 0.99
181, 39991.47, 39996.12, 40063.04, 40048.67, 20778.14, 20785.67, 20813.41, 20806.59, 0.00, 0.00, 0.00
182, 39423.67, 39428.92, 39495.64, 39481.32, 21196.14, 21204.16, 21231.50, 21225.30, 0.00, 0.00, 0.00
183, 39535.92, 39540.93, 39607.74, 39593.39, 21117.77, 21125.17, 21153.31, 21146.96, 0.00, 0.00, 0.00
184, 40137.12, 40141.81, 40208.17, 40194.47, 20677.17, 20684.55, 20712.67, 20705.94, 0.00, 0.00, 0.00
185, 40090.27, 40094.91, 40161.59, 40147.55, 20691.10, 20698.47, 20726.50, 20719.57, 0.00, 0.00, 0.00
186, 39484.63, 39489.41, 39556.46, 39542.18, 21122.76, 21130.47, 21158.29, 21152.04, 0.00, 0.00, 0.00
187, 39428.43, 39433.57, 39500.45, 39486.16, 21168.60, 21176.27, 21204.16, 21197.77, 0.00, 0.00, 0.00
188, 39990.80, 39995.76, 40061.66, 40047.75, 20750.53, 20757.57, 20785.49, 20778.63, 0.00, 0.00, 0.00
189, 40095.18, 40100.32, 40166.66, 40152.29, 20658.04, 20665.17, 20693.31, 20686.43, 0.00, 0.00, 0.00
190, 39525.17, 39530.38, 39597.32, 39582.79, 21077.07, 21084.85, 21112.85, 21106.08, 0.06, 0.11, 0.99
191, 39330.96, 39335.85, 39402.35, 39388.22, 21214.87, 21222.51, 21250.72, 21244.06, 0.00, 0.00, 0.00
192, 39884.74, 39889.21, 39955.44, 39941.65, 20807.15, 20814.39, 20842.84, 20836.27, 0.00, 0.00, 0.00
193, 40145.48, 40150.06, 40216.75, 40202.76, 20619.91, 20626.88, 20655.22, 20648.50, 0.00, 0.00, 0.00
194, 39622.29, 39627.16, 39694.35, 39679.91, 20999.75, 21007.11, 21035.07, 21028.81, 0.00, 0.00, 0.00
195, 39313.86, 39318.98, 39385.94, 39371.32, 21230.65, 21238.60, 21266.14, 21260.04, 0.00, 0.00, 0.00
196, 39802.33, 39807.54, 39873.68, 39859.69, 20873.80, 20881.36, 20909.50, 20902.68, 0.00, 0.00, 0.00
197, 40202.14, 40207.08, 40273.02, 40259.29, 20580.81, 20587.99, 20616.33, 20609.58, 0.00, 0.00, 0.00
198, 39761.98, 39766.68, 39833.15, 39819.48, 20901.45, 20909.16, 20937.08, 20930.46, 0.00, 0.00, 0.00
199, 39314.50, 39319.42, 39386.03, 39372.39, 21220.81, 21228.70, 21256.49, 21250.16, 0.00, 0.00, 0.00
200, 39671.08, 39676.27, 39742.36, 39728.46, 20947.12, 20954.74, 20982.70, 20976.17, 0.06, 0.11, 0.98
201, 40134.37, 40139.17, 40205.40, 40191.52, 20608.55, 20615.86, 20644.07, 20637.12, 0.00, 0.00, 0.00
202, 39833.36, 39838.05, 39904.90, 39890.98, 20821.23, 20829.08, 20856.95, 20850.33, 0.00, 0.00, 0.00
203, 39308.96, 39313.79, 39380.62, 39366.76, 21194.28, 21202.08, 21229.80, 21223.52, 0.00, 0.00, 0.00
204, 39541.26, 39546.36, 39612.79, 39598.77, 21027.87, 21035.34, 21063.32, 21056.62, 0.00, 0.00, 0.00
205, 40114.20, 40119.17, 40185.15, 40171.58, 20621.50, 20628.89, 20656.95, 20650.02, 0.00, 0.00, 0.00
206, 39933.69, 39938.59, 40004.82, 39991.43, 20744.36, 20752.03, 20779.81, 20773.20, 0.00, 0.00, 0.00
207, 39352.77, 39357.87, 39424.59, 39410.37, 21162.47, 21170.50, 21198.30, 21191.82, 0.00, 0.00, 0.00
208, 39453.11, 39458.61, 39525.08, 39510.98, 21096.92, 21104.36, 21132.66, 21126.09, 0.00, 0.00, 0.00
209, 40027.59, 40032.64, 40098.98, 40084.81, 20663.25, 20670.33, 20698.79, 20692.04, 0.00, 0.00, 0.00
210, 39990.44, 39995.20, 40061.68, 40047.64, 20675.23, 20682.45, 20710.66, 20703.62, 0.06, 0.11, 0.99
211, 39394.01, 39398.73, 39465.45, 39451.41, 21112.79, 21120.52, 21148.44, 21142.16, 0.00, 0.00, 0.00
212, 39324.99, 39329.70, 39396.42, 39382.30, 21160.82, 21168.42, 21196.40, 21190.37, 0.00, 0.00, 0.00
213, 39913.98, 39918.94, 39985.35, 39971.42, 20728.34, 20735.29, 20763.56, 20756.70, 0.00, 0.00, 0.00
214, 40048.63, 40053.30, 40119.77, 40105.78, 20625.21, 20632.25, 20660.41, 20653.82, 0.00, 0.00, 0.00
215, 39496.22, 39500.88, 39567.86, 39553.82, 21038.27, 21045.69, 21073.60, 21066.99, 0.00, 0.00, 0.00
216, 39292.98, 39298.07, 39364.68, 39350.51, 21182.99, 21190.64, 21218.58, 21212.16, 0.00, 0.00, 0.00
217, 39827.01, 39831.77, 39898.18, 39883.98, 20788.26, 20795.88, 20823.73, 20817.43, 0.00, 0.00, 0.00
218, 40085.75, 40090.63, 40157.10, 40142.99, 20599.72, 20607.14, 20635.20, 20628.51, 0.00, 0.00, 0.00
219, 39573.00, 39577.81, 39644.73, 39630.34, 20958.87, 20966.74, 20994.54, 20988.24, 0.00, 0.00, 0.00
220, 39244.48, 39249.19, 39316.02, 39301.81, 21204.67, 21212.52, 21240.46, 21234.29, 0.00, 0.00, 0.00
221, 39711.65, 39716.16, 39782.73, 39768.60, 20877.31, 20884.89, 20912.92, 20906.10, 0.05, 0.11, 0.99
222, 40118.21, 40122.77, 40189.17, 40175.20, 20581.13, 20588.28, 20616.40, 20609.22, 0.00, 0.00, 0.00
223, 39699.56, 39704.54, 39771.38, 39757.00, 20875.48, 20882.77, 20910.57, 20904.16, 0.00, 0.00, 0.00
224, 39252.48, 39257.17, 39324.12, 39309.97, 21207.18, 21215.16, 21243.05, 21236.82, 0.00, 0.00, 0.00
225, 39599.64, 39604.18, 39670.75, 39656.75, 20958.29, 20966.07, 20994.03, 20987.77, 0.00, 0.00, 0.00
226, 40099.59, 40104.13, 40170.42, 40156.52, 20582.76, 20590.07, 20618.30, 20611.66, 0.00, 0.00, 0.00
227, 39799.45, 39804.07, 39871.06, 39856.91, 20775.34, 20782.54, 20810.68, 20804.20, 0.00, 0.00, 0.00
228, 39255.56, 39260.50, 39327.29, 39313.01, 21160.46, 21168.29, 21196.27, 21189.86, 0.00, 0.00, 0.00
229, 39461.02, 39466.00, 39532.25, 39518.31, 21015.40, 21022.91, 21051.14, 21044.64, 0.00, 0.00, 0.00
230, 40025.67, 40030.30, 40096.64, 40083.00, 20605.60, 20612.46, 20641.12, 20634.08, 0.00, 0.00, 0.00
231, 39849.65, 39854.41, 39921.13, 39907.21, 20735.58, 20742.71, 20771.23, 20764.21, 0.06, 0.11, 0.99
232, 39291.86, 39296.58, 39363.79, 39349.46, 21144.75, 21152.48, 21180.45, 21174.23, 0.00, 0.00, 0.00
233, 39355.43, 39360.46, 39427.00, 39413.07, 21095.58, 21103.24, 21131.27, 21124.99, 0.00, 0.00, 0.00
234, 39938.79, 39943.86, 40010.02, 39996.19, 20660.34, 20667.47, 20695.79, 20688.91, 0.00, 0.00, 0.00
235, 39939.50, 39944.38, 40011.01, 39996.93, 20666.06, 20673.40, 20701.54, 20694.41, 0.00, 0.00, 0.00
236, 39356.19, 39361.00, 39427.92, 39413.84, 21110.57, 21117.93, 21145.87, 21139.27, 0.00, 0.00, 0.00
237, 39270.79, 39275.55, 39342.45, 39328.09, 21157.13, 21164.66, 21192.61, 21186.17, 0.00, 0.00, 0.00
238, 39860.38, 39865.30, 39931.57, 39917.60, 20713.92, 20721.03, 20749.19, 20742.44, 0.00, 0.00, 0.00
239, 40022.00, 40026.68, 40093.26, 40078.91, 20594.94, 20602.25, 20630.53, 20623.84, 0.00, 0.00, 0.00
240, 39460.73, 39465.29, 39532.10, 39517.84, 20999.40, 21007.38, 21035.16, 21028.72, 0.00, 0.00, 0.00
241, 39234.64, 39239.54, 39306.12, 39291.66, 21167.84, 21175.82, 21203.40, 21197.03, 0.06, 0.11, 0.99
242, 39773.77, 39778.55, 39844.80, 39830.54, 20775.79, 20783.01, 20811.20, 20804.47, 0.00, 0.00, 0.00
243, 40073.79, 40078.64, 40144.87, 40130.86, 20545.48, 20552.61, 20581.13, 20573.95, 0.00, 0.00, 0.00
244, 39567.41, 39572.22, 39639.03, 39625.04, 20905.09, 20912.47, 20940.59, 20933.88, 0.00, 0.00, 0.00
245, 39206.84, 39211.75, 39278.72, 39264.44, 21162.92, 21170.48, 21198.42, 21192.27, 0.00, 0.00, 0.00
246, 39640.80, 39645.87, 39712.23, 39698.55, 20830.53, 20838.33, 20865.98, 20859.88, 0.00, 0.00, 0.00
247, 40013.13, 40018.20, 40084.75, 40071.00, 20506.14, 20513.51, 20541.77, 20534.68, 0.00, 0.00, 0.00
248, 39580.22, 39585.39, 39651.93, 39637.93, 20812.80, 20820.11, 20848.10, 20841.71, 0.00, 0.00, 0.00
249, 39091.14, 39096.35, 39162.96, 39148.66, 21144.30, 21152.26, 21179.82, 21174.07, 0.00, 0.00, 0.00
250, 39441.24, 39446.16, 39512.43, 39498.53, 20896.06, 20903.69, 20931.40, 20925.12, 0.00, 0.00, 0.00
251, 39979.25, 39983.69, 40049.92, 40036.04, 20527.91, 20535.04, 20563.11, 20556.43, 0.06, 0.11, 0.99
252, 39693.48, 39698.04, 39764.98, 39750.36, 20726.73, 20734.17, 20762.40, 20755.81, 0.00, 0.00, 0.00
253, 39173.13, 39177.78, 39244.77, 39230.28, 21126.46, 21134.24, 21162.27, 21155.81, 0.00, 0.00, 0.00
254, 39385.70, 39390.12, 39456.73, 39442.56, 20984.00, 20991.44, 21019.49, 21012.92, 0.00, 0.00, 0.00
255, 39970.82, 39975.56, 40041.72, 40027.93, 20558.93, 20565.97, 20594.49, 20587.65, 0.00, 0.00, 0.00
0, 39854.32, 39858.99, 39925.49, 39911.52, 20638.77, 20646.15, 20674.20, 20667.70, 0.00, 0.00, 0.00
1, 39272.19, 39277.33, 39344.32, 39329.59, 21053.53, 21061.09, 21089.21, 21083.13, 0.00, 0.00, 0.00
2, 39318.24, 39323.16, 39389.76, 39375.37, 21025.64, 21033.04, 21061.42, 21055.23, 0.00, 0.00, 0.00
3, 39926.16, 39930.41, 39996.79, 39982.91, 20599.72, 20607.12, 20635.42, 20628.29, 0.00, 0.00, 0.00
4, 39949.45, 39954.26, 40020.66, 40006.69, 20581.35, 20588.84, 20616.85, 20609.94, 0.00, 0.00, 0.00
5, 39321.72, 39326.84, 39393.85, 39379.55, 21039.29, 21047.21, 21074.92, 21068.71, 0.07, 0.11, 0.99
6, 39232.59, 39237.75, 39304.42, 39290.66, 21104.67, 21112.59, 21140.82, 21134.22, 0.00, 0.00, 0.00
7, 39818.38, 39823.16, 39889.28, 39875.91, 20681.87, 20689.22, 20717.25, 20710.52, 0.00, 0.00, 0.00
8, 39996.23, 40001.17, 40067.56, 40053.50, 20541.83, 20549.16, 20577.19, 20570.40, 0.00, 0.00, 0.00
9, 39425.77, 39430.69, 39497.57, 39483.13, 20947.56, 20955.01, 20982.83, 20976.42, 0.00, 0.00, 0.00
10, 39149.06, 39154.11, 39220.47, 39206.30, 21124.14, 21131.96, 21159.72, 21153.69, 0.00, 0.00, 0.00
11, 39625.26, 39629.91, 39695.89, 39682.23, 20740.54, 20748.05, 20775.95, 20769.58, 0.00, 0.00, 0.00
12, 39974.93, 39979.63, 40045.72, 40031.95, 20516.84, 20524.33, 20552.56, 20545.59, 0.00, 0.00, 0.00
13, 39518.06, 39523.07, 39589.34, 39575.48, 20868.33, 20876.15, 20903.82, 20897.16, 0.00, 0.00, 0.00
14, 39146.04, 39150.80, 39217.65, 39203.26, 21145.69, 21153.64, 21181.29, 21174.88, 0.00, 0.00, 0.00
15, 39564.13, 39568.75, 39635.36, 39620.93, 20842.02, 20849.97, 20877.80, 20871.41, 0.00, 0.00, 0.00
16, 39989.08, 39993.77, 40060.11, 40046.25, 20518.25, 20525.34, 20553.54, 20546.88, 0.06, 0.11, 1.00
17, 39620.01, 39624.90, 39691.51, 39677.56, 20785.18, 20792.78, 20820.81, 20814.35, 0.00, 0.00, 0.00
18, 39145.04, 39150.22, 39217.16, 39202.63, 21137.33, 21145.51, 21173.07, 21166.79, 0.00, 0.00, 0.00
19, 39460.75, 39465.65, 39532.03, 39518.02, 20920.49, 20928.34, 20956.57, 20949.80, 0.00, 0.00, 0.00
20, 39999.52, 40003.99, 40069.97, 40056.47, 20532.71, 20540.11, 20568.07, 20561.55, 0.00, 0.00, 0.00
21, 39754.12, 39758.79, 39825.31, 39811.54, 20707.71, 20715.24, 20743.11, 20736.61, 0.00, 0.00, 0.00
22, 39185.22, 39189.85, 39257.11, 39242.75, 21125.64, 21133.28, 21161.20, 21154.96, 0.00, 0.00, 0.00
23, 39359.10, 39363.97, 39430.84, 39416.68, 21010.28, 21018.28, 21046.27, 21039.83, 0.00, 0.00, 0.00
24, 39980.41, 39985.04, 40051.20, 40037.41, 20580.59, 20588.17, 20615.93, 20609.27, 0.00, 0.00, 0.00
25, 39979.87, 39984.86, 40051.04, 40037.43, 20652.54, 20659.74, 20687.61, 20681.04, 0.00, 0.00, 0.00
26, 39482.46, 39487.64, 39554.38, 39540.44, 21079.13, 21086.63, 21114.42, 21107.67, 0.06, 0.11, 1.00
27, 39544.73, 39549.82, 39616.19, 39602.33, 21072.93, 21080.80, 21108.38, 21101.97, 0.00, 0.00, 0.00
28, 40086.38, 40090.78, 40157.01, 40143.62, 20625.29, 20632.65, 20660.43, 20653.97, 0.00, 0.00, 0.00
29, 40073.21, 40077.75, 40144.07, 40130.21, 20570.06, 20577.35, 20604.91, 20598.32, 0.00, 0.00, 0.00
30, 39448.66, 39453.35, 39520.25, 39505.77, 20994.63, 21002.26, 21029.91, 21023.51, 0.00, 0.00, 0.00
31, 39307.98, 39312.71, 39379.14, 39364.95, 21090.72, 21098.32, 21126.13, 21119.85, 0.00, 0.00, 0.00
32, 39866.08, 39871.24, 39937.31, 39923.34, 20674.80, 20682.13, 20710.43, 20703.95, 0.00, 0.00, 0.00
33, 40044.51, 40049.39, 40115.52, 40101.89, 20526.68, 20533.94, 20562.33, 20555.54, 0.00, 0.00, 0.00
34, 39497.63, 39502.46, 39569.36, 39555.01, 20936.19, 20944.01, 20971.81, 20965.18, 0.00, 0.00, 0.00
35, 39190.68, 39195.26, 39262.38, 39248.01, 21159.55, 21167.30, 21195.02, 21188.85, 0.00, 0.00, 0.00
36, 39716.46, 39721.17, 39787.29, 39773.54, 20771.19, 20778.63, 20806.54, 20800.11, 0.05, 0.11, 1.00
37, 40052.71, 40057.21, 40123.59, 40110.00, 20522.54, 20530.10, 20557.90, 20550.89, 0.00, 0.00, 0.00
38, 39577.54, 39582.23, 39649.22, 39635.07, 20867.54, 20875.25, 20902.79, 20896.00, 0.00, 0.00, 0.00
39, 39181.49, 39186.61, 39253.15, 39238.98, 21162.77, 21170.52, 21198.26, 21191.78, 0.00, 0.00, 0.00
40, 39583.29, 39587.98, 39654.39, 39640.23, 20856.32, 20863.32, 20891.66, 20885.02, 0.00, 0.00, 0.00
41, 40028.15, 40032.60, 40099.25, 40085.13, 20518.07, 20525.09, 20553.23, 20546.35, 0.00, 0.00, 0.00
42, 39668.51, 39673.23, 39739.99, 39725.75, 20783.34, 20790.65, 20818.53, 20811.91, 0.00, 0.00, 0.00
43, 39162.38, 39167.05, 39233.73, 39219.96, 21141.04, 21148.82, 21176.85, 21170.59, 0.00, 0.00, 0.00
44, 39443.30, 39448.08, 39514.48, 39500.65, 20935.76, 20943.43, 20971.75, 20964.93, 0.00, 0.00, 0.00
45, 39986.78, 39991.67, 40057.99, 40044.11, 20548.65, 20555.80, 20584.19, 20576.88, 0.00, 0.00, 0.00
46, 39758.59, 39763.57, 39830.18, 39816.14, 20701.98, 20709.47, 20737.39, 20730.21, 0.07, 0.11, 0.99
47, 39202.86, 39207.75, 39274.56, 39260.50, 21099.35, 21107.15, 21135.03, 21128.57, 0.00, 0.00, 0.00
48, 39345.51, 39350.22, 39416.52, 39402.46, 20990.21, 20997.74, 21025.93, 21019.49, 0.00, 0.00, 0.00
49, 39936.60, 39941.09, 40007.36, 39993.28, 20564.83, 20571.90, 20600.13, 20593.76, 0.00, 0.00, 0.00
50, 39866.37, 39870.68, 39937.22, 39923.30, 20618.70, 20625.79, 20653.77, 20647.60, 0.00, 0.00, 0.00
51, 39262.11, 39266.61, 39333.68, 39319.71, 21048.86, 21056.44, 21084.53, 21078.34, 0.00, 0.00, 0.00
52, 39240.77, 39245.21, 39312.27, 39298.16, 21077.78, 21085.58, 21113.66, 21107.60, 0.00, 0.00, 0.00
53, 39821.96, 39826.47, 39893.04, 39879.11, 20644.65, 20651.69, 20679.97, 20673.42, 0.00, 0.00, 0.00
54, 39905.21, 39910.02, 39976.45, 39962.62, 20577.26, 20584.23, 20612.62, 20605.83, 0.00, 0.00, 0.00
55, 39321.03, 39326.30, 39393.09, 39379.05, 20996.33, 21003.96, 21032.07, 21025.66, 0.00, 0.00, 0.00
56, 39160.88, 39166.02, 39232.88, 39218.55, 21114.71, 21122.40, 21150.52, 21144.30, 0.00, 0.00, 0.00
57, 39725.73, 39730.63, 39796.48, 39782.95, 20707.44, 20714.88, 20743.00, 20736.45, 0.07, 0.11, 0.98
58, 39957.12, 39961.88, 40027.57, 40014.11, 20535.57, 20542.82, 20571.07, 20564.14, 0.00, 0.00, 0.00
59, 39415.82, 39420.83, 39487.26, 39473.31, 20916.22, 20923.65, 20951.59, 20944.99, 0.00, 0.00, 0.00
60, 39121.52, 39126.46, 39193.22, 39179.23, 21133.10, 21140.86, 21168.73, 21162.21, 0.00, 0.00, 0.00
61, 39628.82, 39633.73, 39700.14, 39686.30, 20778.65, 20785.74, 20813.74, 20807.39, 0.00, 0.00, 0.00
62, 39985.79, 39990.69, 40056.94, 40042.95, 20506.70, 20513.96, 20541.92, 20535.22, 0.00, 0.00, 0.00
63, 39526.45, 39531.36, 39598.06, 39583.89, 20834.69, 20842.24, 20870.34, 20863.63, 0.00, 0.00, 0.00
64, 39124.89, 39129.81, 39196.62, 39182.27, 21138.65, 21146.34, 21174.12, 21167.73, 0.00, 0.00, 0.00
65, 39483.19, 39488.13, 39554.43, 39540.41, 20882.65, 20889.98, 20918.19, 20911.46, 0.00, 0.00, 0.00
66, 39958.61, 39963.15, 40029.22, 40015.59, 20520.98, 20527.69, 20555.96, 20548.85, 0.00, 0.00, 0.00
67, 39617.10, 39621.55, 39688.18, 39674.17, 20762.31, 20769.42, 20797.61, 20790.68, 0.07, 0.10, 0.98
68, 39109.25, 39114.12, 39180.91, 39166.85, 21123.65, 21131.45, 21159.52, 21153.02, 0.00, 0.00, 0.00
69, 39380.82, 39385.58, 39452.23, 39438.29, 20938.76, 20946.58, 20974.70, 20967.99, 0.00, 0.00, 0.00
70, 39933.76, 39938.30, 40004.43, 39990.58, 20545.28, 20552.52, 20580.61, 20573.66, 0.00, 0.00, 0.00
71, 39724.93, 39729.71, 39796.36, 39782.15, 20690.34, 20697.67, 20725.52, 20718.75, 0.00, 0.00, 0.00
72, 39148.83, 39153.75, 39220.79, 39206.16, 21094.66, 21102.64, 21130.20, 21123.89, 0.00, 0.00, 0.00
73, 39267.27, 39272.04, 39338.31, 39324.05, 21007.20, 21014.97, 21042.80, 21036.46, 0.00, 0.00, 0.00
74, 39867.80, 39872.67, 39938.48, 39925.00, 20578.92, 20585.91, 20614.32, 20607.39, 0.00, 0.00, 0.00
75, 39812.05, 39816.93, 39883.22, 39869.54, 20612.20, 20619.39, 20647.51, 20640.83, 0.00, 0.00, 0.00
76, 39211.75, 39216.80, 39283.77, 39269.40, 21042.56, 21050.31, 21078.10, 21072.08, 0.00, 0.00, 0.00
77, 39178.09, 39183.30, 39249.98, 39235.54, 21070.01, 21077.63, 21105.81, 21099.13, 0.07, 0.11, 0.99
78, 39775.49, 39780.54, 39846.81, 39832.73, 20633.97, 20641.05, 20669.71, 20662.71, 0.00, 0.00, 0.00
79, 39878.30, 39883.07, 39949.59, 39935.50, 20555.85, 20563.07, 20591.12, 20584.62, 0.00, 0.00, 0.00
80, 39285.40, 39290.25, 39357.13, 39343.00, 20962.94, 20970.92, 20998.57, 20992.38, 0.00, 0.00, 0.00
81, 39107.68, 39112.33, 39179.10, 39165.11, 21108.27, 21116.12, 21144.28, 21137.73, 0.00, 0.00, 0.00
82, 39656.22, 39660.71, 39727.27, 39713.21, 20722.17, 20729.81, 20757.77, 20751.13, 0.00, 0.00, 0.00
83, 39879.13, 39883.67, 39949.92, 39936.02, 20543.33, 20550.93, 20578.78, 20572.34, 0.00, 0.00, 0.00
84, 39351.95, 39357.11, 39423.69, 39409.57, 20912.13, 20919.91, 20947.88, 20941.48, 0.00, 0.00, 0.00
85, 39034.64, 39039.87, 39106.19, 39092.26, 21132.48, 21140.59, 21168.42, 21161.85, 0.00, 0.00, 0.00
86, 39516.88, 39521.64, 39587.80, 39574.01, 20790.88, 20798.25, 20826.39, 20819.76, 0.00, 0.00, 0.00
87, 39893.46, 39898.27, 39964.54, 39950.81, 20519.53, 20526.59, 20555.09, 20548.03, 0.07, 0.11, 0.99
88, 39450.05, 39454.98, 39521.62, 39507.69, 20831.09, 20838.84, 20867.05, 20860.19, 0.00, 0.00, 0.00
89, 39029.88, 39034.95, 39101.71, 39087.43, 21141.98, 21149.87, 21177.88, 21171.39, 0.00, 0.00, 0.00
90, 39408.79, 39413.57, 39480.00, 39465.89, 20869.22, 20876.48, 20905.03, 20898.28, 0.00, 0.00, 0.00
91, 39901.13, 39905.89, 39972.03, 39958.28, 20505.51, 20512.49, 20540.83, 20534.19, 0.00, 0.00, 0.00
92, 39581.77, 39586.35, 39652.98, 39639.27, 20727.00, 20734.13, 20762.22, 20755.74, 0.00, 0.00, 0.00
93, 39060.14, 39065.13, 39131.89, 39117.74, 21105.70, 21113.48, 21141.38, 21134.87, 0.00, 0.00, 0.00
94, 39298.75, 39303.55, 39370.05, 39355.74, 20928.43, 20935.87, 20963.90, 20957.44, 0.00, 0.00, 0.00
95, 39816.59, 39821.42, 39887.65, 39873.59, 20558.20, 20565.30, 20593.55, 20586.78, 0.00, 0.00, 0.00
96, 39661.07, 39666.12, 39732.30, 39718.36, 20673.53, 20680.84, 20709.11, 20702.41, 0.00, 0.00, 0.00
97, 39111.24, 39116.31, 39182.81, 39169.04, 21082.54, 21090.28, 21118.38, 21111.98, 0.08, 0.11, 0.99
98, 39302.70, 39307.80, 39374.09, 39360.26, 21037.01, 21044.55, 21072.51, 21066.36, 0.00, 0.00, 0.00
99, 40011.81, 40016.89, 40082.69, 40069.05, 20616.55, 20623.44, 20651.76, 20645.10, 0.00, 0.00, 0.00
100, 40059.04, 40064.02, 40130.37, 40116.75, 20630.12, 20637.39, 20664.90, 20658.51, 0.00, 0.00, 0.00
101, 39515.29, 39520.30, 39586.95, 39572.93, 21054.09, 21061.96, 21089.16, 21083.01, 0.00, 0.00, 0.00
102, 39495.89, 39500.63, 39567.30, 39553.15, 21097.95, 21105.99, 21133.51, 21127.14, 0.00, 0.00, 0.00
103, 40106.65, 40111.05, 40177.08, 40163.31, 20669.98, 20677.35, 20705.16, 20698.29, 0.00, 0.00, 0.00
104, 40261.84, 40266.51, 40332.29, 40318.84, 20575.41, 20582.56, 20610.23, 20603.19, 0.00, 0.00, 0.00
105, 39715.58, 39720.61, 39786.86, 39773.23, 20981.54, 20989.47, 21016.52, 21009.95, 0.00, 0.00, 0.00
106, 39537.20, 39542.49, 39609.03, 39594.77, 21142.51, 21150.43, 21177.67, 21171.35, 0.00, 0.00, 0.00
107, 40107.63, 40112.30, 40178.46, 40164.41, 20752.10, 20759.21, 20786.88, 20780.17, 0.00, 0.00, 0.00
108, 40363.54, 40367.90, 40433.93, 40420.36, 20539.51, 20546.48, 20574.20, 20567.13, 0.08, 0.12, 0.99
109, 39777.34, 39781.93, 39848.42, 39834.90, 20892.55, 20900.38, 20927.78, 20921.41, 0.00, 0.00, 0.00
110, 39368.30, 39373.18, 39440.16, 39425.95, 21131.81, 21139.79, 21167.66, 21161.42, 0.00, 0.00, 0.00
111, 39787.73, 39792.59, 39858.77, 39844.89, 20798.77, 20806.08, 20834.22, 20827.87, 0.00, 0.00, 0.00
112, 40134.63, 40139.51, 40205.67, 40192.21, 20510.47, 20517.76, 20545.86, 20539.13, 0.00, 0.00, 0.00
113, 39649.87, 39655.05, 39721.64, 39707.85, 20816.49, 20824.31, 20852.12, 20845.59, 0.00, 0.00, 0.00
114, 39174.98, 39180.19, 39246.80, 39232.68, 21127.25, 21135.12, 21163.03, 21156.55, 0.00, 0.00, 0.00
115, 39509.61, 39514.55, 39580.73, 39566.86, 20871.10, 20878.67, 20906.95, 20900.15, 0.00, 0.00, 0.00
116, 39997.57, 40001.84, 40068.20, 40054.66, 20508.87, 20515.77, 20544.52, 20537.43, 0.00, 0.00, 0.00
117, 39693.46, 39698.21, 39764.64, 39750.88, 20722.97, 20730.15, 20758.40, 20751.65, 0.00, 0.00, 0.00
118, 39155.70, 39160.43, 39226.98, 39212.87, 21112.94, 21120.54, 21148.28, 21142.09, 0.09, 0.11, 0.99
119, 39365.09, 39370.14, 39436.43, 39422.53, 20963.66, 20971.05, 20999.11, 20992.67, 0.00, 0.00, 0.00
120, 39940.55, 39945.11, 40011.70, 39997.75, 20542.88, 20549.79, 20578.49, 20571.29, 0.00, 0.00, 0.00
121, 39803.98, 39808.88, 39875.49, 39861.36, 20640.07, 20647.54, 20675.65, 20668.59, 0.00, 0.00, 0.00
122, 39237.55, 39242.42, 39309.36, 39295.01, 21065.20, 21072.87, 21100.78, 21094.37, 0.00, 0.00, 0.00
123, 39322.33, 39327.02, 39393.61, 39379.28, 21029.50, 21037.01, 21065.20, 21058.88, 0.00, 0.00, 0.00
124, 39950.50, 39954.79, 40020.82, 40007.03, 20599.05, 20606.21, 20634.30, 20627.62, 0.00, 0.00, 0.00
125, 39923.54, 39928.11, 39994.49, 39980.63, 20627.60, 20634.95, 20662.80, 20655.87, 0.00, 0.00, 0.00
126, 39347.59, 39352.39, 39419.07, 39405.03, 21046.07, 21053.87, 21081.70, 21075.32, 0.00, 0.00, 0.00
127, 39286.61, 39290.99, 39357.78, 39343.70, 21095.98, 21103.87, 21131.92, 21125.59, 0.00, 0.00, 0.00
128, 39900.12, 39904.81, 39970.98, 39957.39, 20674.89, 20682.49, 20710.54, 20703.46, 0.08, 0.11, 0.99
129, 40080.83, 40085.26, 40151.89, 40137.96, 20585.13, 20592.86, 20620.51, 20613.70, 0.00, 0.00, 0.00
130, 39547.84, 39552.33, 39619.32, 39605.37, 20987.82, 20995.71, 21023.45, 21016.72, 0.00, 0.00, 0.00
131, 39347.83, 39352.59, 39418.84, 39405.12, 21154.65, 21162.63, 21190.03, 21183.78, 0.00, 0.00, 0.00
132, 39917.67, 39922.07, 39988.14, 39974.60, 20770.60, 20778.43, 20806.10, 20799.39, 0.00, 0.00, 0.00
133, 40246.41, 40250.71, 40316.80, 40303.12, 20564.16, 20571.63, 20599.61, 20592.46, 0.00, 0.00, 0.00
134, 39762.66, 39767.35, 39833.67, 39820.01, 20930.84, 20938.69, 20966.00, 20959.54, 0.00, 0.00, 0.00
135, 39423.92, 39428.83, 39495.49, 39481.52, 21187.38, 21195.42, 21222.67, 21216.52, 0.00, 0.00, 0.00
136, 39900.84, 39905.33, 39971.46, 39957.90, 20862.67, 20870.25, 20897.88, 20891.13, 0.00, 0.00, 0.00
137, 40334.97, 40339.82, 40405.71, 40391.97, 20556.36, 20563.83, 20591.19, 20584.35, 0.00, 0.00, 0.00
138, 39962.37, 39966.77, 40033.38, 40019.57, 20848.61, 20856.05, 20883.21, 20876.89, 0.08, 0.11, 0.99
139, 39546.34, 39550.83, 39617.48, 39603.45, 21190.95, 21198.48, 21225.91, 21219.52, 0.00, 0.00, 0.00
140, 40001.08, 40005.44, 40072.09, 40058.44, 20958.83, 20966.58, 20993.34, 20986.77, 0.00, 0.00, 0.00
141, 40621.72, 40626.46, 40692.78, 40678.88, 20599.39, 20606.68, 20633.45, 20626.46, 0.00, 0.00, 0.00
142, 40365.93, 40370.67, 40436.88, 40423.00, 20794.68, 20801.87, 20828.90, 20822.13, 0.00, 0.00, 0.00
143, 39753.85, 39758.68, 39825.22, 39811.16, 21182.32, 21189.95, 21216.92, 21210.49, 0.00, 0.00, 0.00
144, 39915.16, 39919.84, 39986.22, 39971.96, 21035.05, 21042.60, 21069.83, 21063.46, 0.00, 0.00, 0.00
145, 40465.86, 40470.36, 40536.34, 40523.04, 20616.64, 20624.02, 20651.63, 20644.43, 0.00, 0.00, 0.00
146, 40320.42, 40324.94, 40391.37, 40377.89, 20704.91, 20712.00, 20739.80, 20732.63, 0.00, 0.00, 0.00
147, 39736.84, 39741.69, 39808.48, 39794.02, 21126.35, 21134.38, 21161.49, 21155.05, 0.00, 0.00, 0.00
148, 39792.09, 39796.72, 39863.46, 39848.98, 21096.56, 21104.31, 21131.32, 21125.37, 0.07, 0.11, 0.99
149, 40387.32, 40392.15, 40458.29, 40444.21, 20662.20, 20669.19, 20696.80, 20689.85, 0.00, 0.00, 0.00
150, 40413.52, 40417.90, 40484.24, 40470.04, 20639.02, 20645.99, 20673.44, 20666.69, 0.00, 0.00, 0.00
151, 39814.58, 39818.83, 39885.82, 39871.62, 21060.01, 21068.02, 21094.79, 21088.69, 0.00, 0.00, 0.00
152, 39685.30, 39690.10, 39756.58, 39742.63, 21130.42, 21138.67, 21165.45, 21159.32, 0.00, 0.00, 0.00
153, 40280.41, 40285.31, 40351.00, 40337.23, 20712.33, 20720.09, 20747.13, 20740.41, 0.00, 0.00, 0.00
154, 40476.75, 40481.42, 40547.54, 40533.93, 20588.68, 20596.42, 20623.44, 20616.67, 0.00, 0.00, 0.00
155, 39887.76, 39892.25, 39959.06, 39945.18, 21015.82, 21023.54, 21050.38, 21044.57, 0.00, 0.00, 0.00
156, 39651.84, 39656.60, 39723.05, 39709.35, 21185.77, 21193.50, 21220.37, 21214.29, 0.00, 0.00, 0.00
157, 40194.83, 40199.59, 40265.84, 40252.43, 20804.11, 20811.46, 20838.89, 20832.34, 0.00, 0.00, 0.00
158, 40506.79, 40511.42, 40577.60, 40563.92, 20566.80, 20574.20, 20601.69, 20594.94, 0.00, 0.00, 0.00
159, 40005.29, 40010.02, 40076.59, 40062.33, 20915.33, 20923.22, 20950.33, 20943.85, 0.08, 0.11, 0.98
160, 39628.59, 39633.80, 39700.68, 39686.04, 21187.69, 21195.80, 21222.89, 21216.50, 0.00, 0.00, 0.00
161, 40062.24, 40067.38, 40133.61, 40119.79, 20875.50, 20883.41, 20910.59, 20904.27, 0.00, 0.00, 0.00
162, 40491.91, 40496.51, 40563.05, 40549.33, 20559.31, 20566.76, 20594.07, 20587.36, 0.00, 0.00, 0.00
163, 40106.07, 40110.79, 40177.68, 40163.76, 20834.57, 20842.69, 20869.40, 20863.10, 0.00, 0.00, 0.00
164, 39645.00, 39649.63, 39716.55, 39702.57, 21187.75, 21195.87, 21222.62, 21216.34, 0.00, 0.00, 0.00
165, 39961.03, 39965.54, 40032.02, 40018.27, 20977.13, 20984.85, 21012.16, 21005.72, 0.00, 0.00, 0.00
166, 40482.45, 40487.12, 40553.37, 40539.74, 20592.39, 20599.97, 20627.37, 20620.40, 0.00, 0.00, 0.00
167, 40224.64, 40228.87, 40295.68, 40281.93, 20768.64, 20776.48, 20803.57, 20796.91, 0.00, 0.00, 0.00
168, 39667.93, 39672.69, 39739.68, 39725.66, 21160.82, 21168.84, 21196.02, 21189.74, 0.00, 0.00, 0.00
169, 39832.28, 39837.04, 39904.01, 39889.95, 21042.42, 21050.18, 21077.45, 21071.17, 0.08, 0.11, 0.99
170, 40421.30, 40425.99, 40492.44, 40478.58, 20617.27, 20625.05, 20652.18, 20645.48, 0.00, 0.00, 0.00
171, 40313.70, 40317.98, 40384.82, 40371.07, 20684.17, 20691.81, 20718.68, 20712.45, 0.00, 0.00, 0.00
172, 39708.50, 39713.39, 39780.36, 39766.43, 21116.12, 21124.19, 21151.03, 21144.71, 0.00, 0.00, 0.00
173, 39710.13, 39714.98, 39781.68, 39767.39, 21120.92, 21128.72, 21155.99, 21149.42, 0.00, 0.00, 0.00
174, 40316.80, 40321.32, 40387.66, 40373.51, 20674.76, 20681.98, 20709.74, 20702.70, 0.00, 0.00, 0.00
175, 40368.23, 40372.75, 40439.24, 40425.63, 20629.27, 20636.54, 20664.34, 20657.32, 0.00, 0.00, 0.00
176, 39770.32, 39775.20, 39842.32, 39828.30, 21052.64, 21060.42, 21087.73, 21080.96, 0.00, 0.00, 0.00
177, 39643.50, 39648.44, 39715.45, 39701.01, 21147.23, 21154.92, 21182.14, 21176.06, 0.00, 0.00, 0.00
178, 40180.07, 40184.97, 40251.58, 40237.30, 20724.71, 20731.89, 20759.45, 20753.08, 0.00, 0.00, 0.00
179, 40336.94, 40341.72, 40408.00, 40394.09, 20573.17, 20580.32, 20608.17, 20601.33, 0.08, 0.11, 0.99
180, 39758.45, 39762.88, 39830.00, 39815.90, 20968.17, 20975.68, 21003.24, 20996.96, 0.00, 0.00, 0.00
181, 39487.64, 39492.38, 39559.43, 39545.00, 21160.62, 21168.08, 21195.55, 21189.10, 0.00, 0.00, 0.00
182, 40033.29, 40038.03, 40104.23, 40090.42, 20794.68, 20801.94, 20829.54, 20822.79, 0.00, 0.00, 0.00
183, 40375.77, 40380.28, 40446.80, 40432.83, 20544.58, 20551.91, 20579.43, 20572.72, 0.00, 0.00, 0.00
184, 39911.23, 39916.10, 39982.89, 39968.76, 20889.29, 20896.51, 20924.27, 20917.50, 0.00, 0.00, 0.00
185, 39511.40, 39516.45, 39583.44, 39569.05, 21194.10, 21201.77, 21229.04, 21222.82, 0.00, 0.00, 0.00
186, 39945.11, 39949.81, 40016.68, 40002.27, 20890.86, 20898.28, 20925.88, 20919.31, 0.00, 0.00, 0.00
187, 40403.30, 40407.77, 40474.25, 40460.48, 20552.12, 20559.09, 20586.87, 20580.10, 0.00, 0.00, 0.00
188, 40044.96, 40049.77, 40116.53, 40102.61, 20818.88, 20826.53, 20853.64, 20846.94, 0.00, 0.00, 0.00
189, 39557.96, 39563.01, 39629.93, 39615.43, 21170.01, 21178.14, 21205.41, 21198.93, 0.08, 0.11, 0.98
190, 39842.39, 39847.32, 39913.69, 39899.45, 20959.54, 20966.90, 20994.77, 20988.04, 0.00, 0.00, 0.00
191, 40383.27, 40387.70, 40453.77, 40440.38, 20572.93, 20580.17, 20607.44, 20600.60, 0.00, 0.00, 0.00
192, 40158.82, 40163.49, 40230.10, 40216.55, 20737.77, 20745.46, 20772.08, 20765.80, 0.00, 0.00, 0.00
193, 39611.74, 39616.66, 39683.38, 39669.25, 21145.82, 21153.82, 21180.74, 21174.66, 0.00, 0.00, 0.00
194, 39772.76, 39777.57, 39844.04, 39830.00, 21046.96, 21054.54, 21082.08, 21075.75, 0.00, 0.00, 0.00
195, 40361.48, 40366.06, 40432.36, 40418.48, 20623.53, 20630.73, 20658.42, 20651.63, 0.00, 0.00, 0.00
196, 40278.71, 40283.36, 40349.66, 40335.91, 20663.23, 20670.71, 20697.85, 20691.01, 0.00, 0.00, 0.00
197, 39693.37, 39698.21, 39765.07, 39750.83, 21093.59, 21101.14, 21128.30, 21121.86, 0.00, 0.00, 0.00
198, 39694.24, 39699.16, 39766.05, 39751.88, 21103.64, 21111.18, 21138.40, 21131.92, 0.00, 0.00, 0.00
199, 40301.07, 40305.65, 40372.25, 40358.18, 20669.69, 20676.68, 20704.53, 20697.63, 0.07, 0.11, 0.98
200, 40394.25, 40399.01, 40465.69, 40451.65, 20604.57, 20611.68, 20639.44, 20632.45, 0.00, 0.00, 0.00
201, 39820.70, 39825.91, 39892.34, 39877.99, 21021.55, 21029.15, 21056.44, 21049.87, 0.00, 0.00, 0.00
202, 39668.22, 39673.36, 39739.90, 39725.55, 21140.32, 21148.04, 21175.24, 21168.91, 0.00, 0.00, 0.00
203, 40197.82, 40202.27, 40268.97, 40254.95, 20738.02, 20745.37, 20772.64, 20766.04, 0.00, 0.00, 0.00
204, 40413.67, 40417.88, 40484.66, 40470.52, 20575.96, 20583.18, 20610.52, 20603.95, 0.00, 0.00, 0.00
205, 39890.29, 39895.02, 39962.01, 39947.46, 20968.13, 20975.90, 21002.95, 20996.87, 0.00, 0.00, 0.00
206, 39591.11, 39596.29, 39663.15, 39648.53, 21179.82, 21187.84, 21215.04, 21208.85, 0.00, 0.00, 0.00
207, 40105.20, 40109.76, 40176.59, 40162.20, 20820.85, 20828.40, 20855.88, 20849.33, 0.00, 0.00, 0.00
208, 40461.84, 40466.38, 40533.10, 40518.82, 20564.25, 20571.52, 20599.01, 20591.90, 0.00, 0.00, 0.00
209, 39998.56, 40003.68, 40070.39, 40056.09, 20884.84, 20892.38, 20919.62, 20912.83, 0.00, 0.00, 0.00
210, 39577.14, 39582.46, 39648.98, 39634.85, 21175.77, 21183.40, 21210.98, 21204.52, 0.08, 0.12, 0.98
211, 39960.52, 39965.50, 40031.79, 40018.00, 20892.64, 20899.97, 20927.56, 20920.85, 0.00, 0.00, 0.00
212, 40423.48, 40427.82, 40494.27, 40480.53, 20544.90, 20552.07, 20579.65, 20572.57, 0.00, 0.00, 0.00
213, 40073.05, 40077.88, 40144.43, 40130.19, 20792.35, 20799.44, 20827.31, 20820.29, 0.00, 0.00, 0.00
214, 39569.80, 39574.84, 39641.67, 39627.16, 21154.32, 21162.09, 21189.61, 21183.22, 0.00, 0.00, 0.00
215, 39812.50, 39817.51, 39883.80, 39869.92, 20979.77, 20987.42, 21015.00, 21008.43, 0.00, 0.00, 0.00
216, 40353.19, 40358.15, 40424.13, 40410.37, 20585.53, 20592.73, 20620.29, 20613.52, 0.00, 0.00, 0.00
217, 40150.30, 40155.02, 40221.80, 40207.66, 20720.94, 20728.43, 20755.70, 20749.12, 0.00, 0.00, 0.00
218, 39585.59, 39590.37, 39657.16, 39642.89, 21123.87, 21131.74, 21159.12, 21152.80, 0.00, 0.00, 0.00
219, 39707.54, 39712.48, 39778.97, 39764.98, 21044.70, 21052.08, 21080.00, 21073.63, 0.00, 0.00, 0.00
220, 40301.94, 40306.63, 40372.97, 40358.84, 20621.18, 20628.56, 20656.52, 20649.52, 0.08, 0.11, 0.98
221, 40239.00, 40243.73, 40310.34, 40296.21, 20652.59, 20659.98, 20687.34, 20680.53, 0.00, 0.00, 0.00
222, 39634.96, 39639.99, 39706.78, 39692.76, 21084.82, 21092.96, 21120.03, 21113.72, 0.00, 0.00, 0.00
223, 39598.19, 39603.09, 39669.61, 39655.64, 21106.17, 21113.99, 21141.24, 21135.05, 0.00, 0.00, 0.00
224, 40184.14, 40189.02, 40255.36, 40241.48, 20678.47, 20685.80, 20713.54, 20706.68, 0.00, 0.00, 0.00
225, 40285.60, 40290.56, 40356.99, 40343.04, 20610.74, 20618.03, 20645.95, 20638.88, 0.00, 0.00, 0.00
226, 39694.98, 39700.00, 39766.88, 39752.75, 21021.66, 21029.21, 21056.64, 21050.29, 0.00, 0.00, 0.00
227, 39518.98, 39523.92, 39590.73, 39576.69, 21155.86, 21163.39, 21190.86, 21184.63, 0.00, 0.00, 0.00
228, 40082.82, 40087.43, 40154.15, 40139.95, 20753.06, 20760.14, 20788.15, 20781.62, 0.00, 0.00, 0.00
229, 40320.82, 40325.65, 40392.13, 40378.05, 20561.99, 20569.13, 20596.84, 20590.16, 0.00, 0.00, 0.00
230, 39794.55, 39799.47, 39866.10, 39851.84, 20933.48, 20940.79, 20968.33, 20961.64, 0.09, 0.11, 0.99
231, 39491.57, 39496.40, 39563.21, 39549.13, 21160.44, 21168.17, 21195.85, 21189.43, 0.00, 0.00, 0.00
232, 39968.07, 39972.85, 40039.33, 40025.63, 20819.08, 20827.00, 20854.85, 20848.05, 0.00, 0.00, 0.00
233, 40286.43, 40291.39, 40357.75, 40344.16, 20550.89, 20558.40, 20586.31, 20579.59, 0.00, 0.00, 0.00
234, 39846.27, 39850.99, 39917.71, 39903.88, 20868.46, 20875.93, 20903.46, 20896.78, 0.00, 0.00, 0.00
235, 39433.06, 39437.66, 39504.89, 39490.39, 21167.46, 21175.06, 21202.48, 21196.05, 0.00, 0.00, 0.00
236, 39820.10, 39824.75, 39891.47, 39877.28, 20894.97, 20902.37, 20929.93, 20923.40, 0.00, 0.00, 0.00
237, 40309.89, 40314.36, 40381.00, 40367.00, 20545.63, 20552.74, 20580.90, 20573.71, 0.00, 0.00, 0.00
238, 39979.25, 39983.47, 40050.37, 40036.51, 20768.08, 20775.57, 20803.53, 20796.49, 0.00, 0.00, 0.00
239, 39467.21, 39471.70, 39538.85, 39524.45, 21147.95, 21155.86, 21183.24, 21177.00, 0.00, 0.00, 0.00
240, 39723.65, 39728.23, 39794.89, 39780.72, 20971.26, 20978.72, 21006.57, 20999.98, 0.09, 0.11, 0.99
241, 40294.05, 40298.63, 40365.30, 40351.22, 20561.55, 20568.83, 20596.75, 20589.98, 0.00, 0.00, 0.00
242, 40117.78, 40122.59, 40189.35, 40175.20, 20683.12, 20690.47, 20718.14, 20711.42, 0.00, 0.00, 0.00
243, 39551.84, 39556.84, 39623.72, 39609.66, 21093.97, 21101.41, 21128.86, 21122.46, 0.00, 0.00, 0.00
244, 39664.20, 39669.23, 39736.19, 39721.98, 21027.65, 21034.98, 21062.47, 21055.86, 0.00, 0.00, 0.00
245, 40246.86, 40251.71, 40317.98, 40303.84, 20613.52, 20620.47, 20648.07, 20641.19, 0.00, 0.00, 0.00
246, 40212.93, 40217.54, 40283.99, 40270.11, 20632.49, 20639.55, 20667.16, 20660.30, 0.00, 0.00, 0.00
247, 39648.60, 39653.51, 39720.66, 39706.04, 21053.62, 21061.33, 21088.71, 21082.34, 0.00, 0.00, 0.00
248, 39606.64, 39611.78, 39678.46, 39663.91, 21102.66, 21110.75, 21138.02, 21131.74, 0.00, 0.00, 0.00
249, 40192.66, 40197.44, 40263.56, 40249.70, 20672.12, 20679.63, 20707.50, 20700.64, 0.00, 0.00, 0.00
250, 40315.41, 40319.82, 40386.38, 40372.41, 20580.01, 20587.50, 20615.10, 20608.26, 0.00, 0.00, 0.00
251, 39742.65, 39747.17, 39814.16, 39799.87, 20996.09, 21004.13, 21031.18, 21024.68, 0.09, 0.11, 0.99
252, 39545.13, 39549.91, 39616.59, 39602.64, 21139.79, 21147.88, 21175.44, 21168.73, 0.00, 0.00, 0.00
253, 40079.94, 40084.61, 40150.62, 40137.27, 20734.62, 20742.15, 20770.09, 20763.03, 0.00, 0.00, 0.00
254, 40332.96, 40337.77, 40403.70, 40390.14, 20539.87, 20547.40, 20574.80, 20567.90, 0.00, 0.00, 0.00
255, 39802.89, 39807.85, 39874.41, 39860.56, 20911.91, 20919.82, 20946.80, 20940.54, 0.00, 0.00, 0.00
0, 39467.75, 39472.71, 39539.50, 39525.24, 21142.04, 21149.98, 21177.05, 21171.10, 0.00, 0.00, 0.00
1, 39936.15, 39940.87, 40007.36, 39993.44, 20808.82, 20816.42, 20843.87, 20837.32, 0.00, 0.00, 0.00
2, 40320.69, 40325.23, 40391.97, 40377.96, 20536.76, 20544.11, 20571.72, 20564.61, 0.00, 0.00, 0.00
3, 39878.73, 39883.51, 39950.34, 39936.44, 20840.34, 20847.72, 20875.10, 20868.39, 0.00, 0.00, 0.00
4, 39446.04, 39451.14, 39517.93, 39503.73, 21145.06, 21152.37, 21180.15, 21173.54, 0.00, 0.00, 0.00
5, 39810.55, 39815.18, 39881.77, 39867.64, 20882.68, 20890.23, 20917.88, 20911.15, 0.08, 0.11, 0.98
6, 40296.66, 40301.07, 40367.27, 40353.46, 20523.95, 20531.39, 20559.02, 20551.94, 0.00, 0.00, 0.00
7, 39966.37, 39971.13, 40037.85, 40023.79, 20752.32, 20759.58, 20787.05, 20780.53, 0.00, 0.00, 0.00
8, 39441.62, 39446.16, 39513.14, 39498.84, 21139.52, 21147.28, 21174.61, 21168.42, 0.00, 0.00, 0.00
9, 39682.75, 39687.55, 39754.21, 39740.13, 20977.56, 20985.05, 21012.67, 21006.04, 0.00, 0.00, 0.00
10, 40261.23, 40265.75, 40332.40, 40318.12, 20563.38, 20570.60, 20598.27, 20591.52, 0.00, 0.00, 0.00
11, 40103.81, 40108.30, 40175.16, 40161.01, 20686.47, 20693.87, 20721.63, 20714.90, 0.00, 0.00, 0.00
12, 39509.37, 39513.93, 39580.78, 39566.74, 21110.82, 21118.51, 21146.16, 21139.50, 0.00, 0.00, 0.00
13, 39576.76, 39581.56, 39648.24, 39634.36, 21054.09, 21062.00, 21089.72, 21083.08, 0.00, 0.00, 0.00
14, 40174.15, 40178.89, 40245.21, 40231.53, 20622.68, 20630.12, 20657.88, 20651.16, 0.00, 0.00, 0.00
15, 40165.84, 40170.49, 40237.00, 40223.17, 20622.52, 20629.68, 20657.48, 20650.69, 0.09, 0.11, 0.98
16, 39585.00, 39589.70, 39656.64, 39642.23, 21043.36, 21050.85, 21078.43, 21071.97, 0.00, 0.00, 0.00
17, 39522.55, 39527.45, 39594.35, 39579.98, 21105.81, 21113.48, 21141.02, 21134.60, 0.00, 0.00, 0.00
18, 40123.93, 40128.60, 40194.87, 40181.06, 20680.37, 20687.68, 20715.17, 20708.64, 0.00, 0.00, 0.00
19, 40245.52, 40249.63, 40316.02, 40302.41, 20574.31, 20582.02, 20609.27, 20602.83, 0.00, 0.00, 0.00
20, 39652.24, 39656.71, 39723.61, 39709.59, 20988.27, 20996.13, 21023.36, 21017.14, 0.00, 0.00, 0.00
21, 39454.27, 39458.85, 39525.84, 39511.42, 21144.24, 21151.88, 21179.30, 21173.09, 0.00, 0.00, 0.00
22, 40001.60, 40006.25, 40072.90, 40058.97, 20756.41, 20763.79, 20791.86, 20784.98, 0.00, 0.00, 0.00
23, 40283.27, 40287.92, 40354.40, 40340.45, 20541.03, 20548.25, 20576.57, 20569.37, 0.00, 0.00, 0.00
24, 39762.77, 39767.35, 39834.25, 39820.10, 20896.76, 20904.40, 20932.05, 20925.39, 0.00, 0.00, 0.00
25, 39400.07, 39404.63, 39471.66, 39457.22, 21148.73, 21156.44, 21183.82, 21177.72, 0.09, 0.11, 0.98
26, 39859.39, 39864.13, 39930.36, 39916.55, 20836.74, 20844.30, 20871.81, 20865.17, 0.00, 0.00, 0.00
27, 40273.28, 40278.00, 40344.18, 40330.44, 20531.80, 20539.11, 20566.76, 20560.05, 0.00, 0.00, 0.00
28, 39863.69, 39868.54, 39935.26, 39921.40, 20821.95, 20829.54, 20857.35, 20850.78, 0.00, 0.00, 0.00
29, 39422.98, 39428.05, 39495.06, 39480.91, 21158.25, 21166.14, 21193.79, 21187.51, 0.00, 0.00, 0.00
30, 39798.49, 39803.18, 39870.01, 39855.95, 20920.18, 20927.67, 20955.25, 20948.90, 0.00, 0.00, 0.00
31, 40314.70, 40319.02, 40385.44, 40371.74, 20541.92, 20548.96, 20576.68, 20569.82, 0.00, 0.00, 0.00
32, 40054.01, 40058.82, 40125.25, 40111.57, 20742.64, 20750.31, 20777.58, 20770.80, 0.00, 0.00, 0.00
33, 39535.07, 39539.65, 39606.69, 39592.65, 21137.78, 21145.60, 21172.82, 21166.59, 0.00, 0.00, 0.00
34, 39780.09, 39784.41, 39851.17, 39837.16, 20989.58, 20997.03, 21024.21, 21018.02, 0.00, 0.00, 0.00
35, 40345.66, 40350.20, 40416.42, 40402.63, 20566.58, 20573.42, 20600.78, 20594.09, 0.09, 0.11, 0.99
36, 40196.28, 40201.00, 40267.47, 40253.72, 20660.43, 20668.10, 20695.17, 20688.75, 0.00, 0.00, 0.00
37, 39581.61, 39586.28, 39653.09, 39638.96, 21099.96, 21108.12, 21135.29, 21128.90, 0.00, 0.00, 0.00
38, 39610.82, 39615.65, 39682.21, 39668.20, 21068.15, 21076.02, 21103.24, 21096.92, 0.00, 0.00, 0.00
39, 40224.04, 40228.89, 40294.89, 40281.11, 20615.53, 20622.77, 20650.40, 20643.65, 0.00, 0.00, 0.00
40, 40246.50, 40251.15, 40317.98, 40303.66, 20599.84, 20607.12, 20634.79, 20628.11, 0.00, 0.00, 0.00
41, 39666.88, 39671.39, 39738.74, 39724.10, 21033.13, 21040.90, 21068.17, 21062.00, 0.00, 0.00, 0.00
42, 39586.41, 39591.22, 39658.01, 39643.61, 21102.08, 21109.99, 21137.35, 21131.09, 0.00, 0.00, 0.00
43, 40178.58, 40183.59, 40249.77, 40235.66, 20683.63, 20691.10, 20718.90, 20712.06, 0.00, 0.00, 0.00
44, 40343.29, 40347.87, 40414.12, 40400.29, 20565.73, 20572.57, 20600.46, 20593.76, 0.00, 0.00, 0.00
45, 39775.24, 39779.93, 39846.77, 39832.42, 20967.59, 20975.12, 21002.32, 20996.02, 0.00, 0.00, 0.00
46, 39554.96, 39559.93, 39626.67, 39612.41, 21138.85, 21146.29, 21173.79, 21167.41, 0.09, 0.11, 0.98
47, 40096.14, 40100.88, 40167.29, 40153.32, 20757.80, 20764.97, 20792.58, 20785.76, 0.00, 0.00, 0.00
48, 40402.81, 40407.55, 40474.02, 40459.92, 20530.75, 20538.01, 20565.53, 20558.60, 0.00, 0.00, 0.00
49, 39893.44, 39898.42, 39965.54, 39951.15, 20894.07, 20901.50, 20928.79, 20922.39, 0.00, 0.00, 0.00
50, 39509.75, 39514.44, 39581.23, 39567.30, 21176.18, 21183.96, 21211.40, 21204.96, 0.00, 0.00, 0.00
51, 39971.63, 39976.34, 40042.66, 40028.91, 20843.43, 20850.67, 20878.36, 20871.61, 0.00, 0.00, 0.00
52, 40411.48, 40416.07, 40482.11, 40468.70, 20517.25, 20524.38, 20552.00, 20545.16, 0.00, 0.00, 0.00
53, 40025.02, 40029.71, 40096.26, 40082.24, 20792.58, 20799.75, 20827.49, 20820.67, 0.00, 0.00, 0.00
54, 39544.77, 39549.38, 39616.19, 39601.77, 21129.97, 21137.78, 21165.22, 21158.88, 0.00, 0.00, 0.00
55, 39848.60, 39853.09, 39919.77, 39905.60, 20902.26, 20909.90, 20937.35, 20931.09, 0.00, 0.00, 0.00
56, 40356.95, 40361.57, 40428.09, 40414.25, 20525.03, 20532.22, 20559.89, 20553.19, 0.09, 0.11, 0.98
57, 40117.51, 40122.45, 40189.04, 40174.82, 20712.42, 20719.71, 20747.09, 20740.43, 0.00, 0.00, 0.00
58, 39579.17, 39584.20, 39651.12, 39636.68, 21115.09, 21122.58, 21149.98, 21143.30, 0.00, 0.00, 0.00
59, 39735.90, 39740.86, 39807.52, 39793.43, 20992.58, 20999.93, 21027.69, 21020.68, 0.00, 0.00, 0.00
60, 40308.57, 40313.25, 40379.50, 40366.09, 20571.56, 20578.63, 20606.38, 20599.28, 0.00, 0.00, 0.00
61, 40212.46, 40216.91, 40283.72, 40269.82, 20644.56, 20651.94, 20679.39, 20672.59, 0.00, 0.00, 0.00
62, 39635.81, 39640.39, 39707.34, 39693.32, 21071.62, 21079.33, 21106.62, 21100.22, 0.00, 0.00, 0.00
63, 39679.51, 39684.20, 39750.70, 39736.95, 21059.34, 21067.03, 21094.37, 21087.73, 0.00, 0.00, 0.00
64, 40289.33, 40294.07, 40359.89, 40346.26, 20623.71, 20631.13, 20658.51, 20651.69, 0.00, 0.00, 0.00
65, 40345.07, 40349.66, 40416.20, 40402.25, 20580.55, 20587.74, 20615.15, 20608.40, 0.00, 0.00, 0.00
66, 39755.75, 39760.60, 39827.70, 39813.51, 21008.87, 21016.54, 21043.81, 21037.55, 0.08, 0.11, 0.99
67, 39620.12, 39625.02, 39691.71, 39677.63, 21107.33, 21114.93, 21142.29, 21135.88, 0.00, 0.00, 0.00
68, 40178.96, 40183.59, 40249.97, 40236.20, 20700.60, 20708.04, 20735.47, 20728.74, 0.00, 0.00, 0.00
69, 40387.34, 40391.68, 40458.40, 40444.56, 20551.60, 20558.71, 20586.52, 20579.52, 0.00, 0.00, 0.00
70, 39860.11, 39865.03, 39931.57, 39917.75, 20946.45, 20953.62, 20981.04, 20974.63, 0.00, 0.00, 0.00
71, 39631.70, 39636.68, 39703.04, 39689.39, 21134.11, 21141.80, 21168.58, 21162.61, 0.00, 0.00, 0.00
72, 40163.60, 40168.27, 40234.77, 40220.69, 20764.17, 20771.39, 20798.68, 20792.13, 0.00, 0.00, 0.00
73, 40510.57, 40514.75, 40581.20, 40567.41, 20525.27, 20532.78, 20560.14, 20553.23, 0.00, 0.00, 0.00
74, 40090.73, 40095.27, 40162.06, 40147.93, 20880.89, 20888.91, 20915.82, 20909.12, 0.00, 0.00, 0.00
75, 39724.59, 39729.42, 39796.30, 39782.28, 21153.56, 21161.58, 21188.38, 21182.19, 0.00, 0.00, 0.00
76, 40155.69, 40160.14, 40227.19, 40212.93, 20841.79, 20849.46, 20876.60, 20870.14, 0.09, 0.11, 0.98
77, 40597.07, 40601.32, 40667.84, 40653.84, 20505.38, 20512.93, 20540.20, 20533.21, 0.00, 0.00, 0.00
78, 40196.57, 40201.11, 40267.80, 40253.81, 20770.11, 20777.78, 20804.85, 20798.43, 0.00, 0.00, 0.00
79, 39683.49, 39688.56, 39755.46, 39741.36, 21143.19, 21150.99, 21177.94, 21171.88, 0.00, 0.00, 0.00
80, 39965.88, 39970.91, 40037.18, 40023.23, 20951.07, 20958.56, 20986.01, 20979.32, 0.00, 0.00, 0.00
81, 40514.46, 40519.11, 40585.47, 40571.70, 20550.64, 20558.22, 20585.55, 20578.58, 0.00, 0.00, 0.00
82, 40267.65, 40272.66, 40339.06, 40325.07, 20712.78, 20720.27, 20747.58, 20740.94, 0.00, 0.00, 0.00
83, 39694.04, 39699.20, 39765.92, 39751.75, 21119.45, 21127.00, 21154.18, 21147.83, 0.00, 0.00, 0.00
84, 39835.93, 39840.87, 39907.23, 39893.35, 21008.36, 21015.69, 21043.09, 21036.77, 0.00, 0.00, 0.00
85, 40428.16, 40433.14, 40499.32, 40485.45, 20582.18, 20589.31, 20616.94, 20610.30, 0.00, 0.00, 0.00
86, 40337.23, 40342.17, 40408.64, 40394.92, 20641.90, 20649.14, 20676.46, 20669.75, 0.10, 0.11, 0.98
87, 39727.74, 39732.84, 39799.49, 39785.34, 21069.00, 21076.44, 21103.82, 21097.45, 0.00, 0.00, 0.00
88, 39714.60, 39719.81, 39786.39, 39772.11, 21074.01, 21081.38, 21108.90, 21102.59, 0.00, 0.00, 0.00
89, 40306.79, 40311.59, 40378.11, 40364.14, 20639.35, 20646.60, 20674.25, 20667.52, 0.00, 0.00, 0.00
90, 40357.21, 40361.91, 40428.49, 40414.39, 20576.37, 20583.52, 20611.01, 20604.42, 0.00, 0.00, 0.00
91, 39758.32, 39763.17, 39830.16, 39815.72, 21000.36, 21007.62, 21035.16, 21028.63, 0.00, 0.00, 0.00
92, 39618.04, 39622.80, 39689.79, 39675.55, 21113.86, 21121.75, 21149.04, 21142.58, 0.00, 0.00, 0.00
93, 40188.14, 40192.66, 40259.27, 40245.25, 20698.56, 20706.05, 20733.48, 20727.02, 0.00, 0.00, 0.00
94, 40427.66, 40432.25, 40498.97, 40484.84, 20534.70, 20542.06, 20569.48, 20562.84, 0.00, 0.00, 0.00
95, 39890.44, 39895.31, 39962.21, 39947.62, 20922.28, 20929.86, 20957.02, 20950.76, 0.00, 0.00, 0.00
96, 39591.31, 39596.14, 39663.13, 39648.55, 21122.15, 21129.84, 21157.13, 21150.56, 0.00, 0.00, 0.00
97, 40080.34, 40084.81, 40151.11, 40137.43, 20767.21, 20774.34, 20802.05, 20795.03, 0.10, 0.11, 0.99
98, 40431.24, 40435.94, 40502.12, 40488.48, 20536.36, 20543.73, 20571.18, 20564.56, 0.00, 0.00, 0.00
99, 39996.75, 40001.66, 40068.32, 40054.48, 20865.38, 20873.18, 20900.51, 20894.21, 0.00, 0.00, 0.00
100, 39612.39, 39617.53, 39684.52, 39670.30, 21154.79, 21162.43, 21189.88, 21183.40, 0.00, 0.00, 0.00
101, 40032.93, 40037.54, 40104.13, 40090.22, 20861.73, 20869.00, 20896.56, 20889.92, 0.00, 0.00, 0.00
102, 40491.79, 40496.42, 40562.69, 40548.77, 20523.33, 20530.43, 20557.93, 20551.04, 0.00, 0.00, 0.00
103, 40109.67, 40114.92, 40182.00, 40167.69, 20779.23, 20786.52, 20813.59, 20806.97, 0.00, 0.00, 0.00
104, 39600.99, 39605.90, 39672.91, 39658.77, 21139.68, 21147.50, 21174.54, 21167.95, 0.00, 0.00, 0.00
105, 39884.41, 39889.41, 39955.73, 39941.79, 20938.85, 20946.33, 20973.74, 20967.03, 0.00, 0.00, 0.00
106, 40488.51, 40493.04, 40559.16, 40545.46, 20543.67, 20551.00, 20578.24, 20571.38, 0.00, 0.00, 0.00
107, 40275.50, 40279.90, 40346.55, 40332.76, 20691.86, 20699.46, 20726.57, 20719.82, 0.09, 0.11, 0.99
108, 39656.15, 39661.14, 39727.79, 39713.73, 21095.33, 21103.29, 21130.40, 21123.92, 0.00, 0.00, 0.00
109, 39763.39, 39768.11, 39834.68, 39820.59, 20997.96, 21005.61, 21033.08, 21026.53, 0.00, 0.00, 0.00
110, 40321.88, 40326.23, 40392.66, 40378.67, 20593.18, 20600.46, 20628.00, 20621.21, 0.00, 0.00, 0.00
111, 40280.12, 40284.61, 40351.34, 40337.39, 20623.28, 20630.90, 20658.15, 20651.31, 0.00, 0.00, 0.00
112, 39673.05, 39678.17, 39744.82, 39730.65, 21046.02, 21053.87, 21081.25, 21074.54, 0.00, 0.00, 0.00
113, 39634.83, 39640.04, 39706.44, 39692.02, 21058.31, 21066.07, 21093.36, 21086.99, 0.00, 0.00, 0.00
114, 40223.95, 40228.58, 40294.70, 40280.84, 20613.65, 20620.67, 20648.52, 20641.63, 0.00, 0.00, 0.00
115, 40313.07, 40317.63, 40384.28, 40370.25, 20549.93, 20557.05, 20584.77, 20577.73, 0.00, 0.00, 0.00
116, 39717.51, 39722.49, 39789.25, 39774.91, 20982.16, 20989.92, 21017.26, 21010.73, 0.00, 0.00, 0.00
117, 39540.59, 39545.46, 39612.30, 39598.33, 21105.05, 21112.52, 21140.08, 21133.82, 0.10, 0.10, 0.99
118, 40116.11, 40120.51, 40187.27, 40173.71, 20694.21, 20701.18, 20729.32, 20722.37, 0.00, 0.00, 0.00
119, 40353.86, 40358.60, 40425.03, 40411.53, 20512.35, 20519.48, 20547.33, 20540.34, 0.00, 0.00, 0.00
120, 39801.28, 39806.40, 39872.83, 39858.88, 20898.79, 20906.10, 20933.71, 20927.29, 0.00, 0.00, 0.00
121, 39487.06, 39492.20, 39558.63, 39544.39, 21127.07, 21134.98, 21162.50, 21156.26, 0.00, 0.00, 0.00
122, 39988.95, 39993.75, 40060.07, 40045.96, 20768.66, 20776.42, 20803.77, 20797.16, 0.00, 0.00, 0.00
123, 40386.00, 40390.74, 40457.21, 40443.20, 20495.10, 20502.34, 20529.67, 20522.92, 0.00, 0.00, 0.00
124, 39933.67, 39938.45, 40005.66, 39991.36, 20816.29, 20823.42, 20850.62, 20844.19, 0.00, 0.00, 0.00
125, 39504.89, 39509.52, 39577.03, 39563.01, 21114.42, 21122.35, 21149.58, 21143.50, 0.00, 0.00, 0.00
126, 39882.95, 39887.20, 39954.26, 39940.31, 20837.70, 20844.81, 20872.55, 20866.04, 0.00, 0.00, 0.00
127, 40329.00, 40333.14, 40399.91, 40385.87, 20490.42, 20497.20, 20525.07, 20517.98, 0.09, 0.10, 0.98
128, 39966.91, 39971.45, 40038.81, 40024.26, 20742.48, 20749.84, 20777.46, 20770.89, 0.00, 0.00, 0.00
129, 39457.33, 39462.27, 39529.30, 39515.18, 21119.22, 21127.11, 21154.54, 21148.30, 0.00, 0.00, 0.00
130, 39731.81, 39736.68, 39803.14, 39789.21, 20937.86, 20945.66, 20972.84, 20966.63, 0.00, 0.00, 0.00
131, 40325.52, 40330.55, 40396.71, 40382.87, 20528.60, 20535.78, 20563.52, 20556.72, 0.00, 0.00, 0.00
132, 40140.02, 40144.98, 40211.61, 40197.60, 20662.62, 20670.13, 20697.67, 20691.17, 0.00, 0.00, 0.00
133, 39579.48, 39584.74, 39651.55, 39637.26, 21085.07, 21092.87, 21120.21, 21114.04, 0.00, 0.00, 0.00
134, 39690.98, 39696.00, 39762.97, 39748.51, 21017.32, 21024.99, 21052.28, 21045.91, 0.00, 0.00, 0.00
135, 40286.43, 40290.88, 40357.39, 40343.58, 20581.22, 20588.57, 20615.73, 20609.00, 0.00, 0.00, 0.00
136, 40241.66, 40245.97, 40312.69, 40298.56, 20585.98, 20593.38, 20620.76, 20613.81, 0.00, 0.00, 0.00
137, 39626.36, 39631.39, 39698.33, 39683.93, 21023.31, 21030.85, 21058.20, 21051.95, 0.00, 0.00, 0.00
138, 39577.99, 39582.97, 39649.71, 39635.52, 21059.90, 21067.21, 21094.90, 21088.74, 0.10, 0.11, 0.98
139, 40191.79, 40196.35, 40263.07, 40249.07, 20623.95, 20631.06, 20659.05, 20652.16, 0.00, 0.00, 0.00
140, 40319.42, 40323.98, 40390.59, 40376.79, 20573.24, 20580.35, 20607.91, 20601.29, 0.00, 0.00, 0.00
141, 39779.13, 39783.89, 39850.99, 39837.02, 20975.61, 20983.08, 21010.17, 21003.96, 0.00, 0.00, 0.00
142, 39559.79, 39564.78, 39631.95, 39617.53, 21114.11, 21121.95, 21149.13, 21142.85, 0.00, 0.00, 0.00
143, 40106.54, 40111.48, 40177.77, 40163.94, 20710.59, 20717.96, 20745.17, 20738.84, 0.00, 0.00, 0.00
144, 40361.53, 40366.09, 40432.74, 40418.84, 20503.34, 20510.61, 20538.12, 20531.48, 0.00, 0.00, 0.00
145, 39823.61, 39828.84, 39895.85, 39881.48, 20876.82, 20884.20, 20912.07, 20905.56, 0.00, 0.00, 0.00
146, 39491.13, 39496.20, 39563.01, 39548.59, 21126.18, 21133.78, 21161.42, 21154.99, 0.00, 0.00, 0.00
147, 39980.36, 39985.57, 40051.82, 40037.54, 20789.69, 20796.73, 20824.47, 20817.86, 0.00, 0.00, 0.00
148, 40387.68, 40392.71, 40459.14, 40445.01, 20504.39, 20511.32, 20538.79, 20531.84, 0.10, 0.11, 0.98
149, 39946.90, 39951.53, 40018.36, 40004.21, 20803.84, 20811.28, 20838.60, 20831.96, 0.00, 0.00, 0.00
150, 39496.74, 39501.39, 39568.44, 39554.05, 21122.46, 21130.24, 21157.56, 21151.21, 0.00, 0.00, 0.00
151, 39871.02, 39875.71, 39942.41, 39928.51, 20868.26, 20875.54, 20902.99, 20896.49, 0.00, 0.00, 0.00
152, 40399.93, 40404.55, 40470.69, 40457.06, 20509.80, 20516.55, 20544.07, 20537.54, 0.00, 0.00, 0.00
153, 40126.10, 40130.88, 40197.35, 40183.23, 20721.21, 20728.34, 20755.47, 20749.50, 0.00, 0.00, 0.00
154, 39589.72, 39594.62, 39661.52, 39647.39, 21098.84, 21106.95, 21133.73, 21127.96, 0.00, 0.00, 0.00
155, 39814.33, 39818.94, 39885.84, 39871.67, 20936.25, 20944.25, 20971.46, 20964.68, 0.00, 0.00, 0.00
156, 40385.42, 40390.32, 40456.43, 40442.30, 20518.59, 20526.05, 20553.46, 20546.68, 0.00, 0.00, 0.00
157, 40267.80, 40272.66, 40339.06, 40324.98, 20644.85, 20652.38, 20679.50, 20672.88, 0.00, 0.00, 0.00
158, 39709.08, 39713.73, 39780.74, 39766.48, 21089.99, 21097.86, 21124.77, 21118.46, 0.10, 0.11, 0.99
159, 39754.16, 39758.95, 39825.29, 39811.47, 21026.75, 21034.69, 21061.89, 21055.54, 0.00, 0.00, 0.00
160, 40396.29, 40401.02, 40466.96, 40453.19, 20588.79, 20596.10, 20623.48, 20616.55, 0.00, 0.00, 0.00
161, 40455.79, 40460.52, 40526.97, 40512.94, 20600.39, 20607.73, 20634.79, 20628.00, 0.00, 0.00, 0.00
162, 39851.37, 39856.15, 39923.37, 39909.02, 21034.35, 21042.18, 21068.89, 21062.56, 0.00, 0.00, 0.00
163, 39781.81, 39786.89, 39853.56, 39839.37, 21097.16, 21104.96, 21131.79, 21125.71, 0.00, 0.00, 0.00
164, 40438.42, 40443.18, 40509.63, 40495.61, 20673.11, 20680.24, 20707.46, 20700.75, 0.00, 0.00, 0.00
165, 40588.82, 40593.74, 40660.26, 40646.40, 20552.85, 20559.94, 20587.36, 20580.44, 0.00, 0.00, 0.00
166, 40016.68, 40021.71, 40088.32, 40074.42, 20961.82, 20969.87, 20996.63, 20990.39, 0.00, 0.00, 0.00
167, 39847.06, 39852.00, 39918.74, 39904.66, 21131.21, 21139.54, 21165.89, 21159.81, 0.00, 0.00, 0.00
168, 40357.91, 40362.62, 40428.85, 40415.06, 20737.70, 20745.28, 20772.66, 20765.73, 0.09, 0.11, 0.99
169, 40659.95, 40664.57, 40731.27, 40716.99, 20533.34, 20541.01, 20567.94, 20561.12, 0.00, 0.00, 0.00
170, 40160.79, 40165.32, 40232.60, 40218.12, 20927.29, 20935.11, 20961.87, 20955.52, 0.00, 0.00, 0.00
171, 39869.39, 39874.01, 39940.98, 39926.92, 21169.96, 21177.81, 21204.72, 21198.44, 0.00, 0.00, 0.00
172, 40339.33, 40344.07, 40410.34, 40396.84, 20833.52, 20841.23, 20868.35, 20861.33, 0.00, 0.00, 0.00
173, 40690.48, 40694.88, 40761.60, 40747.86, 20522.61, 20529.72, 20557.05, 20549.99, 0.00, 0.00, 0.00
174, 40248.92, 40253.66, 40320.63, 40306.68, 20830.73, 20838.44, 20865.55, 20859.05, 0.00, 0.00, 0.00
175, 39830.32, 39835.34, 39902.24, 39887.89, 21170.14, 21178.05, 21204.85, 21198.62, 0.00, 0.00, 0.00
176, 40229.88, 40234.68, 40301.04, 40286.98, 20921.03, 20928.72, 20955.36, 20948.68, 0.00, 0.00, 0.00
177, 40692.76, 40697.56, 40763.75, 40749.93, 20536.40, 20543.82, 20570.71, 20563.92, 0.00, 0.00, 0.00
178, 40353.04, 40357.79, 40424.78, 40410.37, 20732.49, 20740.18, 20766.96, 20760.48, 0.09, 0.12, 0.98
179, 39766.08, 39771.04, 39838.27, 39823.81, 21113.75, 21121.97, 21148.64, 21142.36, 0.00, 0.00, 0.00
180, 39944.71, 39949.70, 40016.77, 40002.38, 20966.52, 20974.32, 21001.43, 20995.17, 0.00, 0.00, 0.00
181, 40560.01, 40564.57, 40631.31, 40617.21, 20552.03, 20559.16, 20586.43, 20579.88, 0.00, 0.00, 0.00
182, 40446.84, 40451.63, 40518.53, 40504.13, 20650.51, 20657.95, 20685.18, 20678.51, 0.00, 0.00, 0.00
183, 39827.88, 39832.62, 39900.16, 39885.52, 21069.09, 21076.98, 21104.00, 21097.61, 0.00, 0.00, 0.00
184, 39843.73, 39847.93, 39915.12, 39900.46, 21029.53, 21037.21, 21064.44, 21057.89, 0.00, 0.00, 0.00
185, 40431.29, 40435.96, 40502.23, 40488.38, 20580.46, 20587.65, 20615.28, 20608.40, 0.00, 0.00, 0.00
186, 40425.77, 40430.50, 40496.89, 40483.28, 20556.81, 20563.76, 20591.61, 20584.97, 0.00, 0.00, 0.00
187, 39803.29, 39808.10, 39874.84, 39860.85, 20991.53, 20999.20, 21026.49, 21020.27, 0.00, 0.00, 0.00
188, 39682.57, 39687.62, 39754.66, 39740.13, 21089.07, 21097.05, 21123.85, 21117.77, 0.00, 0.00, 0.00
189, 40313.71, 40318.39, 40385.15, 40371.23, 20670.49, 20677.96, 20705.29, 20698.43, 0.09, 0.11, 0.98
190, 40479.86, 40484.30, 40550.87, 40536.92, 20533.52, 20540.78, 20568.30, 20561.48, 0.00, 0.00, 0.00
191, 39880.29, 39885.10, 39952.42, 39938.12, 20943.16, 20950.71, 20977.87, 20971.77, 0.00, 0.00, 0.00
192, 39650.25, 39654.90, 39722.09, 39707.56, 21127.96, 21135.88, 21162.94, 21157.00, 0.00, 0.00, 0.00
193, 40246.19, 40250.71, 40317.16, 40303.34, 20757.30, 20764.79, 20792.35, 20785.36, 0.00, 0.00, 0.00
194, 40672.13, 40677.00, 40743.29, 40729.75, 20542.04, 20549.59, 20576.66, 20569.39, 0.00, 0.00, 0.00
195, 40262.33, 40267.31, 40334.50, 40320.29, 20905.34, 20913.36, 20939.90, 20933.15, 0.00, 0.00, 0.00
196, 39907.16, 39911.90, 39979.07, 39964.94, 21162.14, 21170.14, 21196.67, 21190.46, 0.00, 0.00, 0.00
197, 40401.31, 40405.85, 40472.28, 40458.36, 20846.42, 20853.93, 20880.87, 20874.29, 0.00, 0.00, 0.00
198, 40941.71, 40946.14, 41012.30, 40998.73, 20539.82, 20547.13, 20574.06, 20567.20, 0.00, 0.00, 0.00
199, 40582.70, 40586.86, 40653.78, 40640.03, 20816.80, 20824.56, 20851.00, 20844.37, 0.09, 0.11, 0.98
200, 40008.19, 40012.88, 40080.10, 40065.75, 21179.35, 21187.51, 21213.97, 21207.85, 0.00, 0.00, 0.00
201, 40292.64, 40297.58, 40364.32, 40350.44, 20923.27, 20930.93, 20957.82, 20951.52, 0.00, 0.00, 0.00
202, 40742.42, 40747.32, 40813.73, 40800.02, 20534.12, 20540.98, 20568.50, 20561.53, 0.00, 0.00, 0.00
203, 40422.77, 40427.51, 40494.34, 40480.26, 20723.60, 20730.86, 20758.24, 20751.34, 0.00, 0.00, 0.00
204, 39863.91, 39868.52, 39935.73, 39921.55, 21127.05, 21134.42, 21162.03, 21155.43, 0.00, 0.00, 0.00
205, 40019.59, 40024.57, 40091.20, 40077.10, 21000.22, 21007.80, 21034.98, 21028.30, 0.00, 0.00, 0.00
206, 40573.09, 40577.42, 40644.07, 40630.22, 20578.74, 20585.93, 20613.45, 20606.47, 0.00, 0.00, 0.00
207, 40432.88, 40437.50, 40504.29, 40490.43, 20655.27, 20662.67, 20690.32, 20683.46, 0.00, 0.00, 0.00
208, 39815.14, 39819.99, 39887.22, 39872.96, 21079.17, 21086.99, 21114.22, 21107.62, 0.00, 0.00, 0.00
209, 39835.70, 39840.20, 39907.52, 39893.08, 21072.75, 21080.27, 21107.78, 21101.21, 0.09, 0.11, 0.98
210, 40450.31, 40454.80, 40521.32, 40507.46, 20626.08, 20633.77, 20661.48, 20654.55, 0.00, 0.00, 0.00
211, 40546.04, 40550.82, 40617.21, 40603.35, 20595.21, 20602.74, 20629.83, 20623.42, 0.00, 0.00, 0.00
212, 40026.12, 40030.83, 40097.80, 40083.45, 21042.74, 21050.56, 21077.25, 21071.17, 0.00, 0.00, 0.00
213, 39937.49, 39942.48, 40009.31, 39995.07, 21126.11, 21133.86, 21160.82, 21154.56, 0.00, 0.00, 0.00
214, 40536.99, 40541.84, 40608.11, 40594.25, 20693.71, 20701.40, 20728.31, 20721.81, 0.00, 0.00, 0.00
215, 40696.00, 40700.63, 40767.19, 40753.22, 20533.85, 20541.10, 20568.41, 20561.37, 0.00, 0.00, 0.00
216, 40135.33, 40140.00, 40206.90, 40192.86, 20924.70, 20932.16, 20959.25, 20952.70, 0.00, 0.00, 0.00
217, 39926.11, 39931.52, 39998.13, 39984.14, 21125.57, 21133.44, 21160.20, 21153.76, 0.00, 0.00, 0.00
218, 40433.12, 40437.99, 40504.29, 40490.43, 20771.70, 20779.07, 20805.96, 20799.04, 0.00, 0.00, 0.00
219, 40810.84, 40815.67, 40882.25, 40868.51, 20532.04, 20539.26, 20566.06, 20559.00, 0.09, 0.11, 0.99
220, 40382.27, 40387.03, 40454.06, 40440.03, 20869.71, 20877.27, 20903.64, 20897.27, 0.00, 0.00, 0.00
221, 39963.18, 39967.89, 40035.19, 40020.93, 21140.08, 21148.24, 21174.46, 21168.46, 0.00, 0.00, 0.00
222, 40420.82, 40425.68, 40492.35, 40478.29, 20840.74, 20848.48, 20875.03, 20868.55, 0.00, 0.00, 0.00
223, 40953.45, 40957.78, 41024.37, 41010.38, 20527.86, 20535.06, 20561.66, 20554.84, 0.00, 0.00, 0.00
224, 40681.54, 40685.98, 40752.79, 40738.54, 20797.31, 20804.51, 20830.78, 20824.27, 0.00, 0.00, 0.00
225, 40272.46, 40277.30, 40344.29, 40329.90, 21151.97, 21159.32, 21185.61, 21179.60, 0.00, 0.00, 0.00
226, 40645.33, 40650.02, 40716.68, 40702.37, 20933.55, 20941.08, 20967.39, 20960.97, 0.00, 0.00, 0.00
227, 41234.52, 41239.23, 41305.44, 41291.79, 20540.04, 20547.06, 20573.39, 20566.76, 0.00, 0.00, 0.00
228, 41034.29, 41039.10, 41105.91, 41092.07, 20712.36, 20719.84, 20745.90, 20739.31, 0.00, 0.00, 0.00
229, 40510.59, 40515.35, 40582.68, 40568.19, 21124.32, 21132.14, 21157.94, 21151.77, 0.09, 0.11, 0.98
230, 40672.20, 40676.84, 40743.96, 40729.55, 21049.55, 21057.44, 21083.08, 21077.00, 0.00, 0.00, 0.00
231, 41303.92, 41308.32, 41374.84, 41361.07, 20613.05, 20620.47, 20646.37, 20640.03, 0.00, 0.00, 0.00
232, 41227.39, 41231.90, 41298.64, 41284.86, 20664.32, 20671.96, 20697.67, 20691.05, 0.00, 0.00, 0.00
233, 40583.61, 40588.13, 40655.48, 40641.15, 21080.31, 21087.93, 21113.88, 21107.45, 0.00, 0.00, 0.00
234, 40514.37, 40518.93, 40586.12, 40571.95, 21087.17, 21094.70, 21121.08, 21114.55, 0.00, 0.00, 0.00
235, 41184.68, 41189.14, 41256.09, 41241.70, 20669.95, 20677.53, 20703.53, 20696.87, 0.00, 0.00, 0.00
236, 41301.57, 41306.31, 41372.92, 41358.95, 20619.51, 20627.24, 20653.21, 20646.22, 0.00, 0.00, 0.00
237, 40750.76, 40755.81, 40822.84, 40808.54, 21039.52, 21047.38, 21073.25, 21066.65, 0.00, 0.00, 0.00
238, 40638.29, 40643.20, 40709.97, 40695.73, 21155.72, 21163.46, 21189.41, 21182.88, 0.00, 0.00, 0.00
239, 41229.29, 41233.76, 41300.73, 41286.55, 20742.44, 20750.08, 20776.01, 20769.04, 0.00, 0.00, 0.00
240, 41458.71, 41463.02, 41530.01, 41516.06, 20585.62, 20593.06, 20619.06, 20612.09, 0.09, 0.11, 0.99
241, 40919.76, 40924.39, 40991.49, 40977.21, 20982.39, 20990.01, 21015.67, 21009.32, 0.00, 0.00, 0.00
242, 40645.66, 40650.42, 40717.39, 40703.35, 21185.01, 21192.67, 21218.53, 21212.39, 0.00, 0.00, 0.00
243, 41163.66, 41168.31, 41235.01, 41221.00, 20815.78, 20823.00, 20849.06, 20842.35, 0.00, 0.00, 0.00
244, 41492.41, 41497.00, 41563.56, 41549.68, 20555.98, 20563.16, 20589.15, 20582.36, 0.00, 0.00, 0.00
245, 41031.41, 41035.97, 41102.93, 41089.21, 20883.86, 20891.26, 20917.03, 20910.57, 0.00, 0.00, 0.00
246, 40643.07, 40647.90, 40714.82, 40700.94, 21171.28, 21179.08, 21204.90, 21198.75, 0.00, 0.00, 0.00
247, 41065.32, 41070.34, 41137.02, 41123.16, 20888.96, 20896.11, 20922.55, 20915.91, 0.00, 0.00, 0.00
248, 41529.79, 41534.73, 41600.89, 41587.30, 20563.22, 20570.29, 20596.51, 20589.69, 0.00, 0.00, 0.00
249, 41158.05, 41162.86, 41229.71, 41215.74, 20816.76, 20824.49, 20850.15, 20843.72, 0.00, 0.00, 0.00
250, 40689.88, 40694.72, 40762.18, 40747.81, 21181.90, 21189.59, 21215.54, 21209.21, 0.09, 0.11, 0.99
251, 41001.26, 41006.09, 41073.21, 41058.95, 20985.85, 20993.41, 21019.20, 21012.85, 0.00, 0.00, 0.00
252, 41569.13, 41573.39, 41640.36, 41626.34, 20578.00, 20585.24, 20611.01, 20604.64, 0.00, 0.00, 0.00
253, 41368.94, 41373.39, 41440.67, 41426.27, 20729.37, 20736.83, 20762.42, 20756.14, 0.00, 0.00, 0.00
254, 40823.52, 40828.39, 40895.60, 40880.94, 21144.84, 21152.86, 21178.08, 21172.13, 0.00, 0.00, 0.00
255, 40971.93, 40976.31, 41043.34, 41029.55, 21057.60, 21065.31, 21090.86, 21084.49, 0.00, 0.00, 0.00
0, 41590.18, 41594.67, 41661.19, 41647.58, 20628.40, 20635.53, 20662.02, 20655.00, 0.00, 0.00, 0.00
1, 41542.41, 41547.11, 41614.10, 41599.97, 20667.34, 20674.71, 20700.93, 20694.09, 0.00, 0.00, 0.00
2, 40951.32, 40956.02, 41023.34, 41009.39, 21102.19, 21110.30, 21135.65, 21129.35, 0.00, 0.00, 0.00
3, 40945.85, 40950.61, 41017.64, 41003.65, 21119.11, 21127.20, 21152.80, 21146.47, 0.00, 0.00, 0.00
4, 41517.34, 41521.89, 41588.66, 41574.55, 20712.38, 20719.60, 20745.66, 20738.80, 0.09, 0.12, 0.99
5, 41633.95, 41638.44, 41705.20, 41691.14, 20638.79, 20646.06, 20671.81, 20664.95, 0.00, 0.00, 0.00
6, 41074.05, 41078.68, 41145.96, 41131.66, 21061.91, 21069.78, 21095.26, 21088.74, 0.00, 0.00, 0.00
7, 40920.10, 40924.86, 40992.38, 40978.01, 21185.99, 21193.86, 21219.34, 21213.26, 0.00, 0.00, 0.00
8, 41487.43, 41492.08, 41558.89, 41544.83, 20770.80, 20778.09, 20803.91, 20797.54, 0.00, 0.00, 0.00
9, 41723.24, 41727.71, 41794.68, 41780.57, 20598.79, 20605.92, 20631.42, 20625.00, 0.00, 0.00, 0.00
10, 41189.66, 41194.46, 41261.83, 41247.59, 20989.56, 20997.03, 21022.35, 21016.25, 0.00, 0.00, 0.00
11, 40901.52, 40906.33, 40973.68, 40959.32, 21210.22, 21218.02, 21243.63, 21237.35, 0.00, 0.00, 0.00
12, 41409.45, 41414.14, 41481.10, 41466.71, 20862.42, 20869.64, 20895.39, 20888.73, 0.00, 0.00, 0.00
13, 41780.73, 41785.51, 41852.34, 41837.97, 20584.62, 20591.97, 20617.67, 20610.50, 0.00, 0.00, 0.00
14, 41328.69, 41333.54, 41400.75, 41386.18, 20900.96, 20908.65, 20934.13, 20927.33, 0.09, 0.11, 0.99
15, 40839.79, 40844.70, 40912.25, 40897.45, 21190.39, 21198.30, 21223.90, 21217.64, 0.00, 0.00, 0.00
16, 41149.71, 41154.61, 41221.49, 41207.29, 20906.19, 20913.72, 20939.81, 20933.35, 0.00, 0.00, 0.00
17, 41670.96, 41675.83, 41742.44, 41728.67, 20568.07, 20574.91, 20601.13, 20594.27, 0.00, 0.00, 0.00
18, 41368.36, 41372.81, 41440.11, 41426.18, 20811.26, 20818.28, 20844.19, 20837.90, 0.00, 0.00, 0.00
19, 40830.98, 40835.72, 40902.95, 40888.63, 21168.08, 21175.88, 21201.39, 21195.38, 0.00, 0.00, 0.00
20, 41031.79, 41036.77, 41103.65, 41089.30, 20968.51, 20976.46, 21002.12, 20995.84, 0.00, 0.00, 0.00
21, 41641.59, 41646.24, 41713.23, 41699.08, 20577.39, 20584.93, 20610.65, 20604.06, 0.00, 0.00, 0.00
22, 41478.24, 41482.96, 41550.02, 41535.98, 20730.88, 20738.82, 20764.35, 20757.97, 0.00, 0.00, 0.00
23, 40912.27, 40917.08, 40984.49, 40969.98, 21159.52, 21167.57, 21192.94, 21186.75, 0.00, 0.00, 0.00
24, 41061.47, 41066.43, 41133.64, 41119.21, 21074.79, 21082.39, 21108.29, 21101.90, 0.00, 0.00, 0.00
25, 41691.52, 41695.77, 41763.14, 41749.04, 20648.74, 20656.10, 20682.02, 20675.34, 0.09, 0.11, 0.99
26, 41657.13, 41661.59, 41728.74, 41714.66, 20674.83, 20682.20, 20708.04, 20701.40, 0.00, 0.00, 0.00
27, 41037.91, 41042.92, 41110.22, 41095.83, 21097.01, 21104.70, 21130.42, 21124.16, 0.00, 0.00, 0.00
28, 40944.68, 40949.42, 41016.43, 41002.33, 21127.79, 21135.32, 21161.29, 21155.21, 0.00, 0.00, 0.00
29, 41439.48, 41444.02, 41510.90, 41497.00, 20691.21, 20698.18, 20724.25, 20717.81, 0.00, 0.00, 0.00
30, 41599.93, 41604.55, 41671.54, 41657.35, 20617.47, 20624.27, 20650.53, 20643.69, 0.00, 0.00, 0.00
31, 41072.47, 41077.10, 41144.55, 41129.91, 21038.42, 21045.96, 21071.59, 21065.07, 0.00, 0.00, 0.00
32, 40923.98, 40928.70, 40996.09, 40981.65, 21185.52, 21193.54, 21218.98, 21212.52, 0.00, 0.00, 0.00
33, 41498.00, 41502.32, 41569.28, 41555.16, 20780.71, 20788.42, 20813.90, 20807.44, 0.00, 0.00, 0.00
34, 41670.85, 41675.36, 41742.35, 41728.29, 20604.13, 20611.28, 20637.21, 20630.64, 0.00, 0.00, 0.00
35, 41076.94, 41081.63, 41149.36, 41134.61, 20971.48, 20978.94, 21005.14, 20998.57, 0.09, 0.10, 0.99
36, 40761.22, 40765.87, 40833.57, 40819.13, 21197.68, 21205.30, 21231.32, 21224.99, 0.00, 0.00, 0.00
37, 41213.66, 41218.58, 41285.70, 41271.40, 20844.72, 20852.12, 20878.72, 20871.86, 0.00, 0.00, 0.00
38, 41536.25, 41540.67, 41607.75, 41593.58, 20564.34, 20571.90, 20598.05, 20591.07, 0.00, 0.00, 0.00
39, 41146.61, 41150.77, 41218.25, 41204.01, 20894.54, 20902.46, 20928.09, 20921.54, 0.00, 0.00, 0.00
40, 40769.78, 40774.18, 40841.31, 40827.34, 21217.35, 21224.95, 21250.85, 21244.57, 0.00, 0.00, 0.00
41, 41184.63, 41189.55, 41256.16, 41242.14, 20954.27, 20961.55, 20987.71, 20981.00, 0.00, 0.00, 0.00
42, 41709.54, 41714.37, 41781.06, 41767.09, 20593.64, 20600.69, 20626.48, 20619.64, 0.00, 0.00, 0.00
43, 41415.12, 41419.82, 41487.38, 41473.06, 20812.47, 20819.71, 20845.55, 20838.91, 0.00, 0.00, 0.00
44, 40908.79, 40913.59, 40981.32, 40966.75, 21192.54, 21200.32, 21226.13, 21219.47, 0.00, 0.00, 0.00
45, 41157.45, 41162.21, 41229.18, 41215.27, 21024.99, 21032.77, 21058.45, 21052.19, 0.09, 0.10, 0.99
46, 41739.40, 41743.91, 41811.02, 41796.93, 20609.27, 20616.76, 20642.53, 20635.71, 0.00, 0.00, 0.00
47, 41554.20, 41558.55, 41626.10, 41611.68, 20717.07, 20724.56, 20750.42, 20743.56, 0.00, 0.00, 0.00
48, 40859.90, 40864.60, 40932.28, 40917.55, 21120.74, 21128.70, 21154.45, 21148.13, 0.00, 0.00, 0.00
49, 40979.11, 40983.22, 41050.90, 41036.28, 21067.55, 21075.28, 21100.81, 21094.44, 0.00, 0.00, 0.00
50, 41643.06, 41647.40, 41714.57, 41700.17, 20633.10, 20640.45, 20666.38, 20659.45, 0.00, 0.00, 0.00
51, 41657.14, 41661.77, 41728.80, 41714.70, 20648.52, 20656.01, 20681.80, 20674.94, 0.00, 0.00, 0.00
52, 41055.48, 41060.27, 41127.79, 41113.48, 21084.42, 21092.40, 21117.79, 21111.04, 0.00, 0.00, 0.00
53, 40997.66, 41002.39, 41069.74, 41055.21, 21157.15, 21164.96, 21190.48, 21184.18, 0.00, 0.00, 0.00
54, 41580.12, 41584.97, 41651.54, 41637.72, 20708.51, 20715.39, 20741.88, 20735.36, 0.00, 0.00, 0.00
55, 41644.47, 41648.92, 41716.04, 41701.74, 20591.34, 20598.56, 20624.60, 20617.92, 0.10, 0.10, 0.98
56, 41076.65, 41081.03, 41148.82, 41133.98, 21012.52, 21020.45, 21046.13, 21039.83, 0.00, 0.00, 0.00
57, 40820.43, 40825.10, 40892.74, 40877.94, 21159.19, 21167.41, 21193.16, 21187.04, 0.00, 0.00, 0.00
58, 41309.93, 41314.52, 41381.48, 41366.95, 20759.83, 20767.54, 20793.96, 20787.23, 0.00, 0.00, 0.00
59, 41645.84, 41650.26, 41717.38, 41702.86, 20559.56, 20566.91, 20593.35, 20586.27, 0.00, 0.00, 0.00
60, 41120.32, 41124.93, 41192.39, 41177.97, 20921.30, 20929.03, 20955.12, 20948.61, 0.00, 0.00, 0.00
61, 40782.68, 40787.24, 40854.70, 40840.23, 21176.49, 21184.20, 21210.26, 21204.12, 0.00, 0.00, 0.00
62, 41281.05, 41285.61, 41352.58, 41338.34, 20846.78, 20854.04, 20880.39, 20873.69, 0.00, 0.00, 0.00
63, 41691.50, 41696.11, 41763.45, 41748.83, 20551.82, 20559.18, 20585.26, 20578.69, 0.00, 0.00, 0.00
64, 41130.88, 41135.95, 41203.27, 41188.65, 20860.50, 20868.06, 20894.10, 20887.66, 0.00, 0.00, 0.00
65, 40686.48, 40691.15, 40758.65, 40744.23, 21196.07, 21203.67, 21229.53, 21223.27, 0.10, 0.11, 0.99
66, 41124.59, 41129.51, 41196.52, 41182.26, 20943.47, 20951.00, 20977.20, 20970.25, 0.00, 0.00, 0.00
67, 41597.40, 41602.25, 41669.20, 41655.07, 20560.34, 20567.83, 20594.36, 20587.03, 0.00, 0.00, 0.00
68, 41149.14, 41153.63, 41220.95, 41206.64, 20744.63, 20751.94, 20778.23, 20771.61, 0.00, 0.00, 0.00
69, 40574.18, 40579.14, 40646.40, 40632.03, 21134.54, 21141.80, 21168.02, 21161.85, 0.00, 0.00, 0.00
70, 40681.20, 40686.34, 40753.22, 40738.94, 20969.89, 20977.31, 21004.02, 20997.52, 0.00, 0.00, 0.00
71, 41150.19, 41154.63, 41221.51, 41207.43, 20549.30, 20556.65, 20583.41, 20576.50, 0.00, 0.00, 0.00
72, 40937.62, 40942.29, 41009.57, 40995.40, 20644.27, 20651.96, 20678.47, 20671.88, 0.00, 0.00, 0.00
73, 40328.36, 40333.07, 40400.91, 40386.34, 21071.68, 21079.88, 21106.19, 21099.85, 0.00, 0.00, 0.00
74, 40409.76, 40414.63, 40482.20, 40467.47, 21043.59, 21051.39, 21078.03, 21072.06, 0.00, 0.00, 0.00
75, 41047.37, 41052.06, 41119.36, 41104.92, 20620.62, 20628.11, 20655.43, 20648.81, 0.00, 0.00, 0.00
76, 41063.37, 41068.02, 41135.41, 41121.02, 20592.64, 20599.84, 20626.72, 20620.04, 0.09, 0.11, 0.99
77, 40390.85, 40395.61, 40463.65, 40448.97, 21015.29, 21023.11, 21049.38, 21043.12, 0.00, 0.00, 0.00
78, 40370.09, 40374.49, 40442.39, 40427.87, 21104.38, 21112.36, 21138.47, 21132.37, 0.00, 0.00, 0.00
79, 41068.80, 41073.63, 41140.48, 41126.23, 20681.98, 20689.11, 20715.73, 20709.00, 0.00, 0.00, 0.00
80, 41291.63, 41296.59, 41363.60, 41349.16, 20561.01, 20568.05, 20594.74, 20588.10, 0.00, 0.00, 0.00
81, 40813.14, 40818.00, 40885.70, 40870.92, 20975.99, 20983.95, 21009.88, 21003.35, 0.00, 0.00, 0.00
82, 40594.90, 40600.00, 40667.30, 40652.77, 21153.56, 21161.33, 21187.42, 21181.14, 0.00, 0.00, 0.00
83, 41045.73, 41050.52, 41117.51, 41103.27, 20767.32, 20774.87, 20801.34, 20794.92, 0.00, 0.00, 0.00
84, 41360.80, 41365.48, 41432.29, 41418.09, 20539.17, 20546.66, 20573.01, 20566.31, 0.00, 0.00, 0.00
85, 40949.31, 40954.32, 41021.39, 41006.87, 20904.16, 20911.87, 20937.73, 20931.31, 0.00, 0.00, 0.00
86, 40660.19, 40665.15, 40732.30, 40717.66, 21167.10, 21175.28, 21201.23, 21194.62, 0.11, 0.11, 0.99
87, 41051.84, 41056.31, 41123.39, 41109.06, 20825.21, 20832.74, 20859.18, 20852.57, 0.00, 0.00, 0.00
88, 41433.07, 41437.54, 41504.53, 41490.51, 20520.22, 20527.51, 20553.86, 20547.20, 0.00, 0.00, 0.00
89, 40977.47, 40982.28, 41049.63, 41035.41, 20799.79, 20807.46, 20833.66, 20827.00, 0.00, 0.00, 0.00
90, 40521.45, 40526.35, 40594.10, 40579.32, 21142.69, 21150.31, 21176.44, 21170.14, 0.00, 0.00, 0.00
91, 40848.35, 40853.24, 40920.59, 40906.15, 20895.59, 20902.70, 20929.57, 20922.77, 0.00, 0.00, 0.00
92, 41338.30, 41342.99, 41410.05, 41395.59, 20520.31, 20527.48, 20554.06, 20547.27, 0.00, 0.00, 0.00
93, 41066.86, 41071.42, 41138.90, 41124.48, 20716.78, 20724.63, 20751.04, 20744.18, 0.00, 0.00, 0.00
94, 40571.50, 40576.44, 40643.76, 40629.50, 21144.04, 21152.08, 21178.30, 21171.73, 0.00, 0.00, 0.00
95, 40813.70, 40818.93, 40885.77, 40871.46, 21008.98, 21016.52, 21042.91, 21036.41, 0.00, 0.00, 0.00
96, 41366.24, 41370.89, 41437.61, 41423.82, 20569.51, 20576.90, 20603.37, 20596.69, 0.10, 0.11, 0.99
97, 41254.12, 41258.64, 41325.74, 41311.95, 20663.65, 20671.09, 20697.13, 20690.56, 0.00, 0.00, 0.00
98, 40668.21, 40672.91, 40740.21, 40725.91, 21078.52, 21086.37, 21112.47, 21106.01, 0.00, 0.00, 0.00
99, 40595.24, 40600.11, 40667.16, 40652.99, 21039.72, 21047.47, 21074.25, 21067.30, 0.00, 0.00, 0.00
100, 41223.97, 41228.68, 41295.88, 41281.61, 20626.95, 20634.19, 20660.81, 20653.59, 0.00, 0.00, 0.00
101, 41334.70, 41339.37, 41406.52, 41392.46, 20608.40, 20615.82, 20641.75, 20634.97, 0.00, 0.00, 0.00
102, 40769.25, 40773.85, 40841.08, 40826.76, 21027.58, 21035.52, 21061.29, 21054.85, 0.00, 0.00, 0.00
103, 40703.82, 40708.38, 40775.53, 40761.27, 21098.57, 21106.37, 21132.43, 21125.97, 0.00, 0.00, 0.00
104, 41193.17, 41197.62, 41264.43, 41250.72, 20664.37, 20671.52, 20698.47, 20691.59, 0.00, 0.00, 0.00
105, 41395.05, 41399.18, 41466.60, 41452.34, 20554.84, 20562.04, 20588.50, 20581.55, 0.00, 0.00, 0.00
106, 40915.49, 40919.85, 40987.75, 40972.94, 20965.53, 20973.56, 20999.37, 20992.76, 0.10, 0.11, 0.98
107, 40611.33, 40616.11, 40683.66, 40669.24, 21130.33, 21138.25, 21164.46, 21157.91, 0.00, 0.00, 0.00
108, 41038.92, 41043.88, 41110.82, 41096.79, 20727.04, 20734.21, 20760.99, 20754.29, 0.00, 0.00, 0.00
109, 41222.56, 41227.16, 41294.22, 41279.94, 20472.61, 20479.76, 20506.47, 20499.90, 0.00, 0.00, 0.00
110, 40654.43, 40659.23, 40726.64, 40712.27, 20814.08, 20821.52, 20848.19, 20841.88, 0.00, 0.00, 0.00
111, 40340.94, 40345.79, 40413.59, 40398.86, 21096.71, 21104.58, 21130.87, 21124.77, 0.00, 0.00, 0.00
112, 40791.75, 40796.43, 40863.66, 40849.22, 20798.30, 20805.92, 20832.70, 20826.01, 0.00, 0.00, 0.00
113, 41118.54, 41123.32, 41190.42, 41175.87, 20485.42, 20492.48, 20519.71, 20512.75, 0.00, 0.00, 0.00
114, 40639.47, 40644.10, 40711.78, 40696.96, 20749.68, 20757.42, 20784.30, 20777.76, 0.00, 0.00, 0.00
115, 40105.58, 40110.16, 40177.77, 40163.34, 21093.79, 21101.57, 21128.63, 21122.02, 0.00, 0.00, 0.00
116, 40369.91, 40374.98, 40441.93, 40427.64, 20871.12, 20878.74, 20906.12, 20899.48, 0.09, 0.11, 0.98
117, 40864.82, 40869.61, 40936.68, 40922.58, 20496.88, 20504.33, 20531.66, 20524.82, 0.00, 0.00, 0.00
118, 40582.38, 40587.28, 40654.67, 40640.34, 20666.69, 20674.11, 20701.56, 20694.81, 0.00, 0.00, 0.00
119, 40008.75, 40013.73, 40081.48, 40066.89, 21065.27, 21073.25, 21100.67, 21094.12, 0.00, 0.00, 0.00
120, 40159.78, 40164.88, 40232.04, 40217.74, 20946.36, 20953.93, 20981.40, 20974.94, 0.00, 0.00, 0.00
121, 40738.80, 40743.77, 40810.68, 40796.38, 20515.75, 20522.86, 20550.28, 20543.46, 0.00, 0.00, 0.00
122, 40720.83, 40725.23, 40792.78, 40778.32, 20606.05, 20612.96, 20639.96, 20633.43, 0.00, 0.00, 0.00
123, 40210.54, 40215.64, 40283.34, 40268.72, 21041.04, 21048.39, 21075.04, 21068.89, 0.00, 0.00, 0.00
124, 40180.86, 40185.71, 40253.46, 40238.28, 21039.85, 21047.50, 21074.36, 21067.93, 0.00, 0.00, 0.00
125, 40774.59, 40779.24, 40846.27, 40831.76, 20621.32, 20628.71, 20656.01, 20649.21, 0.00, 0.00, 0.00
126, 40941.36, 40946.14, 41013.17, 40999.00, 20576.43, 20583.79, 20610.52, 20603.81, 0.00, 0.00, 0.00
127, 40326.55, 40331.31, 40398.81, 40384.13, 20995.15, 21003.31, 21029.91, 21023.40, 0.09, 0.11, 0.99
128, 40231.71, 40236.65, 40304.08, 40289.55, 21099.13, 21107.31, 21134.15, 21127.67, 0.00, 0.00, 0.00
129, 40839.68, 40844.77, 40911.36, 40897.23, 20683.81, 20691.19, 20718.23, 20711.33, 0.00, 0.00, 0.00
130, 41043.79, 41048.87, 41115.34, 41101.39, 20526.25, 20533.90, 20560.41, 20553.90, 0.00, 0.00, 0.00
131, 40412.46, 40417.23, 40484.64, 40470.25, 20908.80, 20916.45, 20942.91, 20936.90, 0.00, 0.00, 0.00
132, 40065.37, 40070.33, 40138.01, 40123.61, 21103.64, 21111.29, 21138.38, 21132.10, 0.00, 0.00, 0.00
133, 40560.30, 40565.24, 40632.36, 40618.13, 20741.37, 20748.30, 20775.52, 20768.93, 0.00, 0.00, 0.00
134, 40979.13, 40984.00, 41050.59, 41036.89, 20501.64, 20508.73, 20535.73, 20528.80, 0.00, 0.00, 0.00
135, 40574.70, 40579.23, 40646.54, 40632.48, 20838.40, 20846.04, 20872.33, 20866.00, 0.00, 0.00, 0.00
136, 40286.65, 40291.32, 40358.55, 40344.03, 21141.26, 21148.95, 21175.24, 21169.09, 0.00, 0.00, 0.00
137, 40790.95, 40796.02, 40862.56, 40848.68, 20856.43, 20864.17, 20890.52, 20884.08, 0.09, 0.11, 0.99
138, 41283.76, 41288.45, 41355.49, 41341.34, 20510.12, 20517.85, 20544.45, 20537.61, 0.00, 0.00, 0.00
139, 40789.70, 40794.37, 40861.80, 40847.43, 20740.50, 20747.96, 20774.47, 20768.19, 0.00, 0.00, 0.00
140, 40245.84, 40250.55, 40318.07, 40303.84, 21107.53, 21115.11, 21141.53, 21135.43, 0.00, 0.00, 0.00
141, 40505.85, 40510.61, 40577.54, 40563.45, 20891.64, 20899.08, 20926.04, 20919.29, 0.00, 0.00, 0.00
142, 40993.79, 40998.37, 41065.47, 41051.30, 20503.46, 20510.83, 20537.92, 20530.95, 0.00, 0.00, 0.00
143, 40837.38, 40842.02, 40909.64, 40895.27, 20701.09, 20708.82, 20735.02, 20728.52, 0.00, 0.00, 0.00
144, 40327.35, 40332.40, 40399.77, 40385.42, 21098.24, 21106.51, 21132.37, 21126.00, 0.00, 0.00, 0.00
145, 40510.90, 40515.51, 40582.72, 40568.59, 20997.21, 21004.80, 21031.22, 21024.59, 0.00, 0.00, 0.00
146, 41134.72, 41139.17, 41206.13, 41192.09, 20580.68, 20587.90, 20614.52, 20607.93, 0.00, 0.00, 0.00
147, 41114.89, 41119.81, 41186.80, 41172.70, 20627.73, 20635.11, 20661.48, 20654.96, 0.09, 0.11, 0.99
148, 40565.64, 40570.74, 40637.95, 40623.60, 21064.95, 21072.71, 21098.66, 21092.56, 0.00, 0.00, 0.00
149, 40623.69, 40628.63, 40695.62, 40681.54, 21077.18, 21085.09, 21110.86, 21105.03, 0.00, 0.00, 0.00
150, 41259.06, 41263.66, 41330.03, 41316.37, 20644.36, 20651.60, 20677.67, 20671.14, 0.00, 0.00, 0.00
151, 41272.16, 41276.25, 41343.26, 41329.25, 20564.21, 20571.29, 20597.60, 20590.98, 0.00, 0.00, 0.00
152, 40597.32, 40601.63, 40668.98, 40654.85, 20974.16, 20981.72, 21008.20, 21001.72, 0.00, 0.00, 0.00
153, 40375.43, 40380.28, 40447.34, 40433.12, 21083.24, 21090.86, 21117.64, 21111.04, 0.00, 0.00, 0.00
154, 40818.46, 40823.20, 40889.99, 40876.27, 20675.68, 20682.98, 20710.25, 20703.28, 0.00, 0.00, 0.00
155, 40939.70, 40944.50, 41011.38, 40997.08, 20519.95, 20527.17, 20554.44, 20547.38, 0.00, 0.00, 0.00
