%OpenBCI Raw EEG Data
%
%Sample Rate = 250.0 Hz
%First Column = SampleIndex
%Other Columns = EEG data in microvolts followed by Accel Data (in G) interleaved with Aux Data
0, 57086.91, 57093.19, 57177.55, 57152.16, 42787.92, 42801.91, 42844.85, 42832.67, -0.17, 0.38, 0.04
1, 57082.80, 57089.68, 57173.64, 57148.40, 42779.58, 42793.71, 42836.60, 42824.44, 0.00, 0.00, 0.00
2, 57087.98, 57094.94, 57178.80, 57153.52, 42780.50, 42794.47, 42837.36, 42825.41, 0.00, 0.00, 0.00
3, 57125.40, 57132.27, 57216.35, 57190.80, 42783.76, 42797.64, 42840.85, 42828.64, 0.00, 0.00, 0.00
4, 57128.87, 57135.48, 57219.93, 57194.11, 42790.58, 42804.39, 42847.38, 42835.48, 0.00, 0.00, 0.00
5, 57127.97, 57134.36, 57218.92, 57193.04, 42802.63, 42816.40, 42859.38, 42847.58, 0.00, 0.00, 0.00
6, 57104.68, 57111.12, 57195.39, 57169.46, 42815.88, 42829.99, 42873.01, 42860.79, 0.00, 0.00, 0.00
7, 57077.05, 57083.52, 57167.47, 57141.83, 42833.56, 42847.76, 42890.63, 42878.60, -0.22, 0.83, 0.16
8, 57117.04, 57123.32, 57207.43, 57181.71, 42817.47, 42831.37, 42874.45, 42862.44, 0.00, 0.00, 0.00
9, 57082.20, 57088.50, 57172.88, 57147.02, 42835.42, 42849.37, 42892.53, 42880.41, 0.00, 0.00, 0.00
10, 57037.31, 57043.97, 57128.09, 57102.20, 42855.18, 42869.17, 42912.09, 42900.57, 0.00, 0.00, 0.00
11, 57069.68, 57076.52, 57160.96, 57135.04, 42832.11, 42845.86, 42888.95, 42877.20, 0.00, 0.00, 0.00
12, 57070.44, 57077.12, 57161.19, 57135.59, 42816.17, 42830.01, 42872.72, 42860.96, 0.00, 0.00, 0.00
13, 57049.20, 57055.82, 57139.80, 57114.14, 42813.16, 42827.19, 42870.04, 42858.11, 0.00, 0.00, 0.00
14, 57043.35, 57050.16, 57134.05, 57108.23, 42795.63, 42809.69, 42852.67, 42840.61, 0.00, 0.00, 0.00
15, 57049.88, 57056.49, 57140.49, 57114.89, 42785.13, 42798.74, 42842.17, 42829.85, 0.00, 0.00, 0.00
16, 57042.32, 57049.07, 57133.16, 57107.57, 42785.17, 42798.96, 42841.77, 42829.79, 0.00, 0.00, 0.00
17, 57021.62, 57028.33, 57112.57, 57086.60, 42787.18, 42801.38, 42844.25, 42832.27, -0.54, 0.89, 0.07
18, 57027.32, 57033.69, 57118.38, 57092.30, 42816.46, 42830.97, 42873.95, 42862.08, 0.00, 0.00, 0.00
19, 57040.11, 57046.72, 57131.10, 57105.40, 42813.63, 42827.86, 42870.84, 42859.02, 0.00, 0.00, 0.00
20, 57041.05, 57047.33, 57131.70, 57105.64, 42797.29, 42811.21, 42854.02, 42842.28, 0.00, 0.00, 0.00
21, 57031.52, 57038.27, 57122.03, 57096.72, 42792.08, 42805.76, 42848.58, 42837.03, 0.00, 0.00, 0.00
22, 57024.93, 57031.37, 57115.39, 57089.75, 42798.87, 42812.86, 42855.24, 42843.29, 0.00, 0.00, 0.00
23, 57028.84, 57035.61, 57119.79, 57093.77, 42784.77, 42798.79, 42841.36, 42829.29, 0.00, 0.00, 0.00
24, 57031.57, 57037.89, 57122.21, 57096.50, 42760.59, 42774.38, 42817.20, 42805.38, 0.00, 0.00, 0.00
25, 57017.84, 57024.39, 57108.66, 57083.02, 42744.83, 42758.82, 42801.67, 42789.38, 0.00, 0.00, 0.00
26, 57014.31, 57021.06, 57105.15, 57079.63, 42755.09, 42768.99, 42811.99, 42799.86, 0.00, 0.00, 0.00
27, 57026.41, 57033.00, 57117.13, 57091.54, 42753.84, 42767.51, 42810.77, 42798.70, -0.27, 0.84, 0.37
28, 57037.83, 57044.29, 57128.51, 57102.91, 42722.09, 42735.95, 42779.07, 42767.16, 0.00, 0.00, 0.00
29, 57038.36, 57044.73, 57129.13, 57103.14, 42699.27, 42713.29, 42756.23, 42744.29, 0.00, 0.00, 0.00
30, 57036.26, 57042.84, 57126.96, 57101.02, 42696.52, 42710.52, 42753.39, 42741.41, 0.00, 0.00, 0.00
31, 57038.21, 57045.00, 57129.00, 57103.12, 42697.62, 42711.50, 42754.44, 42742.26, 0.00, 0.00, 0.00
32, 57048.33, 57055.06, 57139.06, 57113.49, 42699.88, 42713.82, 42756.74, 42744.67, 0.00, 0.00, 0.00
33, 57088.01, 57094.69, 57178.51, 57153.18, 42684.99, 42698.78, 42741.70, 42729.56, 0.00, 0.00, 0.00
34, 57098.07, 57104.82, 57189.06, 57163.27, 42679.13, 42692.95, 42735.84, 42723.59, 0.00, 0.00, 0.00
35, 57094.33, 57100.57, 57184.81, 57159.20, 42686.27, 42700.08, 42742.90, 42731.08, 0.00, 0.00, 0.00
36, 57089.10, 57095.41, 57180.01, 57154.21, 42702.07, 42715.81, 42758.75, 42746.82, 0.00, 0.00, 0.00
37, 57051.53, 57058.14, 57142.64, 57116.68, 42710.16, 42724.08, 42766.93, 42755.11, 0.00, 0.00, 0.00
38, 57093.68, 57099.99, 57184.46, 57158.73, 42697.87, 42712.02, 42754.71, 42742.59, -0.26, 0.84, 0.29
39, 57105.00, 57111.68, 57196.08, 57170.22, 42715.30, 42729.31, 42772.05, 42760.07, 0.00, 0.00, 0.00
40, 57081.28, 57087.70, 57172.27, 57146.50, 42753.54, 42767.54, 42810.70, 42798.56, 0.00, 0.00, 0.00
41, 57092.99, 57098.89, 57183.76, 57157.99, 42766.20, 42780.41, 42823.23, 42811.01, 0.00, 0.00, 0.00
42, 57083.85, 57090.36, 57174.66, 57148.58, 42732.80, 42747.02, 42789.91, 42777.50, 0.00, 0.00, 0.00
43, 57073.08, 57079.65, 57163.80, 57137.92, 42731.80, 42745.61, 42788.70, 42776.81, 0.00, 0.00, 0.00
44, 57077.93, 57084.10, 57168.43, 57142.86, 42739.17, 42753.21, 42795.97, 42784.12, 0.00, 0.00, 0.00
45, 57090.45, 57096.34, 57181.04, 57155.33, 42789.53, 42803.54, 42846.35, 42834.19, 0.00, 0.00, 0.00
46, 57077.46, 57083.25, 57168.18, 57142.52, 42813.18, 42827.48, 42870.20, 42858.17, 0.00, 0.00, 0.00
47, 57070.71, 57076.81, 57161.05, 57135.64, 42817.96, 42832.45, 42874.96, 42863.13, 0.00, 0.00, 0.00
48, 57087.38, 57093.66, 57177.88, 57151.96, 42831.89, 42846.13, 42889.06, 42877.04, -0.33, 0.80, 0.05
49, 57097.51, 57103.61, 57188.03, 57162.42, 42825.49, 42839.35, 42882.34, 42870.33, 0.00, 0.00, 0.00
50, 57103.07, 57109.29, 57193.44, 57167.85, 42819.39, 42833.50, 42876.30, 42864.23, 0.00, 0.00, 0.00
51, 57097.11, 57103.50, 57187.67, 57162.19, 42808.53, 42822.81, 42865.53, 42853.55, 0.00, 0.00, 0.00
52, 57111.86, 57118.18, 57202.65, 57176.70, 42810.16, 42824.24, 42867.11, 42855.11, 0.00, 0.00, 0.00
53, 57126.52, 57132.60, 57216.91, 57191.16, 42826.84, 42840.58, 42883.52, 42871.56, 0.00, 0.00, 0.00
54, 57144.56, 57150.73, 57234.95, 57209.22, 42837.30, 42851.33, 42894.27, 42882.27, 0.00, 0.00, 0.00
55, 57142.12, 57148.51, 57232.80, 57206.96, 42839.87, 42853.79, 42896.64, 42884.91, 0.00, 0.00, 0.00
56, 57168.23, 57174.57, 57259.18, 57233.36, 42837.03, 42851.11, 42894.14, 42882.09, 0.00, 0.00, 0.00
57, 57207.95, 57213.94, 57298.56, 57273.10, 42845.97, 42860.12, 42903.19, 42891.05, 0.00, 0.00, 0.00
58, 57224.00, 57230.05, 57314.41, 57289.17, 42843.22, 42857.32, 42900.17, 42888.17, -0.21, 0.88, 0.22
59, 57235.57, 57241.95, 57326.48, 57300.86, 42816.93, 42830.95, 42873.84, 42862.00, 0.00, 0.00, 0.00
60, 57265.88, 57272.36, 57357.01, 57331.24, 42816.06, 42830.30, 42872.97, 42861.10, 0.00, 0.00, 0.00
61, 57310.27, 57316.44, 57400.95, 57375.20, 42813.40, 42827.68, 42870.15, 42858.15, 0.00, 0.00, 0.00
62, 57355.22, 57361.68, 57445.86, 57420.04, 42791.63, 42805.78, 42848.34, 42836.51, 0.00, 0.00, 0.00
63, 57429.36, 57435.60, 57520.18, 57494.36, 42780.39, 42794.67, 42837.32, 42825.54, 0.00, 0.00, 0.00
64, 57484.17, 57490.74, 57575.03, 57549.50, 42771.58, 42786.11, 42828.58, 42816.82, 0.00, 0.00, 0.00
65, 57542.35, 57548.72, 57633.17, 57607.62, 42750.53, 42764.54, 42807.46, 42795.57, 0.00, 0.00, 0.00
66, 57588.51, 57594.54, 57679.34, 57653.64, 42735.39, 42749.66, 42792.17, 42780.61, 0.00, 0.00, 0.00
67, 57585.22, 57591.79, 57676.35, 57650.80, 42707.48, 42721.54, 42764.43, 42752.49, 0.00, 0.00, 0.00
68, 57683.77, 57690.19, 57774.41, 57749.20, 42692.75, 42707.07, 42749.68, 42737.67, 0.05, 0.94, 0.44
69, 57722.95, 57729.66, 57813.79, 57788.51, 42688.68, 42702.94, 42745.86, 42733.76, 0.00, 0.00, 0.00
70, 57717.63, 57724.29, 57808.61, 57783.15, 42667.42, 42681.50, 42724.35, 42712.13, 0.00, 0.00, 0.00
71, 57757.73, 57764.15, 57848.79, 57823.31, 42646.14, 42660.05, 42702.74, 42690.64, 0.00, 0.00, 0.00
72, 57780.46, 57786.84, 57871.39, 57845.93, 42650.46, 42664.32, 42707.19, 42695.03, 0.00, 0.00, 0.00
73, 57796.51, 57803.20, 57887.86, 57862.54, 42664.58, 42678.62, 42721.40, 42709.36, 0.00, 0.00, 0.00
74, 57814.89, 57821.57, 57906.28, 57880.80, 42673.26, 42687.63, 42730.14, 42718.14, 0.00, 0.00, 0.00
75, 57833.35, 57839.85, 57924.68, 57899.31, 42664.94, 42679.49, 42721.76, 42709.80, 0.00, 0.00, 0.00
76, 57848.19, 57854.32, 57939.14, 57913.73, 42668.23, 42682.40, 42725.22, 42712.98, 0.00, 0.00, 0.00
77, 57887.24, 57893.54, 57978.12, 57952.86, 42675.47, 42689.71, 42732.42, 42720.53, 0.00, 0.00, 0.00
78, 57942.87, 57949.51, 58034.04, 58008.79, 42663.46, 42677.50, 42720.13, 42708.30, -0.04, 1.00, 0.47
79, 57983.62, 57989.95, 58074.52, 58049.45, 42655.42, 42669.57, 42712.44, 42700.30, 0.00, 0.00, 0.00
80, 58033.33, 58039.57, 58124.26, 58099.07, 42651.84, 42666.30, 42709.13, 42696.77, 0.00, 0.00, 0.00
81, 58100.88, 58107.31, 58192.21, 58166.48, 42653.05, 42667.73, 42710.63, 42698.38, 0.00, 0.00, 0.00
82, 58184.90, 58191.16, 58276.34, 58250.68, 42626.07, 42640.73, 42683.43, 42671.36, 0.00, 0.00, 0.00
83, 58281.90, 58288.21, 58373.39, 58348.02, 42587.85, 42602.00, 42645.00, 42632.98, 0.00, 0.00, 0.00
84, 58355.66, 58362.17, 58447.26, 58422.00, 42584.07, 42598.51, 42641.23, 42629.16, 0.00, 0.00, 0.00
85, 58373.16, 58379.87, 58464.61, 58439.50, 42571.64, 42586.00, 42628.62, 42616.68, 0.00, 0.00, 0.00
86, 58416.26, 58423.17, 58507.97, 58482.46, 42545.63, 42559.57, 42602.38, 42590.35, 0.00, 0.00, 0.00
87, 58472.12, 58478.60, 58563.69, 58538.23, 42528.66, 42542.99, 42585.75, 42573.48, 0.00, 0.00, 0.00
88, 58495.65, 58501.91, 58586.82, 58561.66, 42519.41, 42534.05, 42576.61, 42564.49, 0.00, 0.00, 0.00
89, 58582.78, 58589.35, 58674.04, 58649.16, 42516.57, 42531.50, 42574.17, 42561.95, -0.17, 0.97, 0.36
90, 58684.59, 58690.98, 58775.90, 58751.11, 42499.67, 42514.27, 42557.25, 42545.07, 0.00, 0.00, 0.00
91, 58749.19, 58755.74, 58840.65, 58815.66, 42471.84, 42486.57, 42529.16, 42517.22, 0.00, 0.00, 0.00
92, 58860.55, 58867.05, 58951.92, 58927.04, 42454.25, 42469.00, 42511.47, 42499.34, 0.00, 0.00, 0.00
93, 58982.07, 58988.55, 59073.73, 59048.70, 42455.98, 42470.86, 42513.22, 42501.35, 0.00, 0.00, 0.00
94, 59053.60, 59059.83, 59145.06, 59119.80, 42465.59, 42480.02, 42522.80, 42510.65, 0.00, 0.00, 0.00
95, 59142.78, 59149.29, 59234.47, 59209.43, 42446.05, 42460.96, 42503.65, 42491.07, 0.00, 0.00, 0.00
96, 59225.57, 59231.85, 59317.30, 59292.25, 42424.48, 42439.39, 42481.63, 42469.48, 0.00, 0.00, 0.00
97, 59220.45, 59226.82, 59312.45, 59287.04, 42413.35, 42427.77, 42470.23, 42458.23, 0.00, 0.00, 0.00
98, 59338.45, 59345.09, 59430.31, 59405.21, 42389.16, 42403.83, 42446.45, 42434.18, 0.00, 0.00, 0.00
99, 59368.24, 59374.93, 59460.29, 59435.25, 42385.32, 42400.21, 42442.56, 42430.67, -0.21, 0.85, 0.19
100, 59362.41, 59369.23, 59454.83, 59429.55, 42378.59, 42393.48, 42435.66, 42423.90, 0.00, 0.00, 0.00
101, 59452.98, 59459.62, 59545.11, 59519.96, 42370.05, 42384.81, 42427.21, 42415.29, 0.00, 0.00, 0.00
102, 59580.96, 59587.45, 59672.96, 59647.75, 42338.32, 42353.52, 42395.91, 42383.73, 0.00, 0.00, 0.00
103, 59634.21, 59640.53, 59726.34, 59701.20, 42326.69, 42341.85, 42384.23, 42372.00, 0.00, 0.00, 0.00
104, 59745.07, 59751.53, 59837.09, 59812.33, 42293.72, 42308.63, 42350.92, 42338.81, 0.00, 0.00, 0.00
105, 59844.83, 59851.38, 59937.12, 59912.38, 42282.35, 42297.30, 42339.81, 42327.65, 0.00, 0.00, 0.00
106, 59870.40, 59876.92, 59962.44, 59937.74, 42282.26, 42297.37, 42339.75, 42327.43, 0.00, 0.00, 0.00
107, 59886.38, 59892.84, 59978.25, 59953.81, 42282.61, 42297.46, 42339.86, 42327.34, 0.00, 0.00, 0.00
108, 59946.04, 59952.81, 60038.26, 60013.79, 42265.11, 42279.62, 42322.36, 42309.88, 0.00, 0.00, 0.00
109, 59989.75, 59995.97, 60082.22, 60056.92, 42232.66, 42247.16, 42289.97, 42277.52, -0.16, 0.83, 0.09
110, 60004.11, 60010.54, 60096.64, 60071.79, 42227.09, 42241.89, 42284.36, 42272.04, 0.00, 0.00, 0.00
111, 59997.42, 60003.93, 60090.05, 60065.21, 42249.38, 42263.93, 42306.53, 42294.39, 0.00, 0.00, 0.00
112, 60005.98, 60012.60, 60098.81, 60073.64, 42235.27, 42249.85, 42292.32, 42280.13, 0.00, 0.00, 0.00
113, 59998.43, 60004.78, 60090.88, 60065.98, 42233.26, 42247.93, 42290.28, 42278.05, 0.00, 0.00, 0.00
114, 59957.12, 59963.74, 60049.70, 60024.89, 42240.28, 42254.68, 42297.08, 42284.94, 0.00, 0.00, 0.00
115, 59884.97, 59891.54, 59977.48, 59952.65, 42245.67, 42260.15, 42302.48, 42290.50, 0.00, 0.00, 0.00
116, 59830.45, 59836.82, 59922.86, 59898.16, 42250.07, 42264.71, 42307.20, 42295.04, 0.00, 0.00, 0.00
117, 59761.70, 59768.70, 59854.28, 59829.27, 42259.52, 42274.08, 42316.52, 42304.39, 0.00, 0.00, 0.00
118, 59661.43, 59667.98, 59753.90, 59728.87, 42276.89, 42291.69, 42334.09, 42322.02, 0.00, 0.00, 0.00
119, 59576.81, 59583.31, 59669.16, 59644.02, 42308.72, 42323.18, 42365.70, 42353.58, -0.12, 0.89, 0.20
120, 59480.80, 59487.33, 59573.41, 59548.04, 42340.93, 42355.55, 42398.08, 42385.84, 0.00, 0.00, 0.00
121, 59346.70, 59353.56, 59439.46, 59414.04, 42352.33, 42366.97, 42409.17, 42397.14, 0.00, 0.00, 0.00
122, 59188.67, 59195.35, 59281.32, 59255.50, 42359.75, 42373.86, 42416.48, 42404.45, 0.00, 0.00, 0.00
123, 59023.47, 59030.06, 59115.82, 59090.41, 42383.62, 42397.77, 42440.48, 42428.17, 0.00, 0.00, 0.00
124, 58817.12, 58823.66, 58909.72, 58883.93, 42424.39, 42438.32, 42481.03, 42468.98, 0.00, 0.00, 0.00
125, 58549.25, 58555.98, 58641.50, 58615.53, 42479.24, 42493.14, 42535.66, 42523.59, 0.00, 0.00, 0.00
126, 58298.24, 58304.84, 58390.45, 58364.16, 42554.50, 42568.52, 42611.27, 42599.12, 0.00, 0.00, 0.00
127, 58028.19, 58034.49, 58120.25, 58094.17, 42600.30, 42614.27, 42657.21, 42644.87, 0.00, 0.00, 0.00
128, 57908.59, 57915.16, 58000.63, 57974.50, 42624.86, 42638.81, 42681.53, 42669.48, 0.00, 0.00, 0.00
129, 57732.41, 57738.93, 57824.54, 57798.32, 42656.31, 42670.21, 42712.89, 42701.02, -0.09, 0.90, 0.37
130, 57535.38, 57541.84, 57627.18, 57601.18, 42694.69, 42708.17, 42751.35, 42738.90, 0.00, 0.00, 0.00
131, 57447.87, 57454.15, 57539.85, 57513.45, 42701.35, 42714.90, 42757.99, 42745.52, 0.00, 0.00, 0.00
132, 57404.98, 57411.75, 57497.22, 57470.85, 42713.80, 42727.35, 42769.95, 42758.17, 0.00, 0.00, 0.00
133, 57354.69, 57361.32, 57446.51, 57420.24, 42726.54, 42740.09, 42783.34, 42771.36, 0.00, 0.00, 0.00
134, 57322.86, 57329.36, 57414.43, 57388.35, 42727.21, 42740.85, 42783.65, 42771.87, 0.00, 0.00, 0.00
135, 57313.63, 57320.13, 57405.02, 57379.16, 42707.48, 42721.40, 42763.94, 42752.18, 0.00, 0.00, 0.00
136, 57308.86, 57315.41, 57400.37, 57374.42, 42702.34, 42716.37, 42759.22, 42747.20, 0.00, 0.00, 0.00
137, 57313.36, 57320.06, 57404.62, 57378.80, 42688.39, 42702.00, 42744.89, 42732.96, 0.00, 0.00, 0.00
138, 57325.32, 57332.02, 57416.55, 57390.40, 42687.43, 42700.97, 42744.31, 42731.97, 0.00, 0.00, 0.00
139, 57338.32, 57344.94, 57429.86, 57403.48, 42672.94, 42686.82, 42729.65, 42717.78, 0.00, 0.00, 0.00
140, 57369.57, 57376.34, 57461.06, 57434.97, 42673.66, 42687.67, 42730.45, 42718.81, -0.09, 0.92, 0.43
141, 57409.16, 57416.27, 57500.78, 57474.80, 42683.38, 42697.29, 42740.29, 42728.15, 0.00, 0.00, 0.00
142, 57429.34, 57436.14, 57520.58, 57495.01, 42684.59, 42698.45, 42741.27, 42729.16, 0.00, 0.00, 0.00
143, 57452.07, 57458.38, 57543.13, 57517.59, 42668.76, 42682.73, 42725.27, 42713.36, 0.00, 0.00, 0.00
144, 57486.63, 57493.11, 57577.85, 57552.14, 42662.62, 42676.92, 42719.39, 42707.68, 0.00, 0.00, 0.00
145, 57519.98, 57526.30, 57611.08, 57585.36, 42644.36, 42658.26, 42701.04, 42689.28, 0.00, 0.00, 0.00
146, 57547.56, 57553.91, 57639.00, 57612.74, 42642.46, 42656.25, 42698.78, 42687.20, 0.00, 0.00, 0.00
147, 57575.54, 57581.96, 57666.92, 57640.86, 42642.93, 42657.03, 42699.56, 42687.74, 0.00, 0.00, 0.00
148, 57600.51, 57606.68, 57691.44, 57665.60, 42641.74, 42656.05, 42698.49, 42686.67, 0.00, 0.00, 0.00
149, 57625.10, 57631.60, 57716.25, 57690.41, 42645.94, 42659.89, 42702.45, 42690.85, 0.00, 0.00, 0.00
150, 57634.60, 57641.04, 57726.04, 57700.24, 42646.99, 42660.67, 42703.59, 42691.70, -0.11, 0.91, 0.37
151, 57635.71, 57642.38, 57727.42, 57701.63, 42650.23, 42664.09, 42706.92, 42694.87, 0.00, 0.00, 0.00
152, 57638.26, 57644.83, 57729.82, 57704.45, 42681.70, 42695.88, 42738.61, 42726.77, 0.00, 0.00, 0.00
153, 57656.55, 57662.98, 57748.17, 57722.42, 42686.93, 42701.31, 42743.66, 42731.73, 0.00, 0.00, 0.00
154, 57647.70, 57654.22, 57739.14, 57713.19, 42709.27, 42723.44, 42766.06, 42753.95, 0.00, 0.00, 0.00
155, 57608.13, 57614.66, 57699.57, 57673.67, 42719.01, 42733.18, 42776.05, 42763.78, 0.00, 0.00, 0.00
156, 57582.20, 57588.62, 57673.85, 57647.81, 42727.93, 42741.70, 42784.97, 42772.74, 0.00, 0.00, 0.00
157, 57478.43, 57485.13, 57569.96, 57543.91, 42754.55, 42768.70, 42811.82, 42799.50, 0.00, 0.00, 0.00
158, 57506.41, 57512.64, 57597.23, 57571.97, 42732.69, 42746.95, 42790.00, 42777.73, 0.00, 0.00, 0.00
159, 57483.63, 57489.76, 57574.45, 57549.23, 42751.13, 42765.30, 42808.53, 42796.21, 0.00, 0.00, 0.00
160, 57399.70, 57406.52, 57491.32, 57465.42, 42801.36, 42815.35, 42858.46, 42846.28, -0.13, 0.91, 0.32
161, 57369.19, 57375.76, 57460.50, 57434.66, 42814.30, 42828.46, 42871.65, 42859.51, 0.00, 0.00, 0.00
162, 57363.09, 57369.64, 57454.33, 57428.38, 42805.40, 42819.41, 42862.73, 42850.50, 0.00, 0.00, 0.00
163, 57335.60, 57341.97, 57426.46, 57400.73, 42812.15, 42826.16, 42869.46, 42857.43, 0.00, 0.00, 0.00
164, 57316.80, 57323.53, 57407.84, 57382.25, 42836.16, 42849.77, 42892.91, 42880.90, 0.00, 0.00, 0.00
165, 57315.32, 57322.32, 57406.81, 57381.13, 42866.42, 42880.46, 42923.57, 42911.41, 0.00, 0.00, 0.00
166, 57300.44, 57306.70, 57391.41, 57365.71, 42866.04, 42879.96, 42923.04, 42911.05, 0.00, 0.00, 0.00
167, 57279.90, 57286.27, 57370.71, 57345.10, 42846.55, 42860.77, 42903.52, 42891.61, 0.00, 0.00, 0.00
168, 57273.46, 57280.21, 57364.72, 57339.15, 42842.95, 42857.17, 42899.88, 42887.81, 0.00, 0.00, 0.00
169, 57276.34, 57282.91, 57367.96, 57342.30, 42827.82, 42841.72, 42884.86, 42873.13, 0.00, 0.00, 0.00
170, 57269.10, 57275.81, 57360.48, 57334.70, 42813.67, 42827.48, 42870.71, 42858.69, -0.16, 0.91, 0.33
171, 57259.13, 57265.75, 57350.39, 57324.49, 42821.29, 42835.35, 42878.27, 42866.26, 0.00, 0.00, 0.00
172, 57240.04, 57246.64, 57331.11, 57305.36, 42817.78, 42831.84, 42874.78, 42863.00, 0.00, 0.00, 0.00
173, 57218.39, 57225.09, 57309.42, 57283.83, 42803.99, 42817.96, 42860.65, 42848.98, 0.00, 0.00, 0.00
174, 57212.51, 57219.26, 57303.52, 57277.98, 42792.41, 42806.34, 42849.30, 42837.59, 0.00, 0.00, 0.00
175, 57192.66, 57199.32, 57283.85, 57257.97, 42790.60, 42804.33, 42847.11, 42835.29, 0.00, 0.00, 0.00
176, 57169.10, 57175.78, 57260.27, 57234.57, 42778.91, 42792.73, 42835.75, 42823.88, 0.00, 0.00, 0.00
177, 57166.15, 57172.61, 57257.41, 57231.55, 42757.23, 42771.49, 42814.30, 42802.25, 0.00, 0.00, 0.00
178, 57162.86, 57169.57, 57254.10, 57228.00, 42742.97, 42756.79, 42799.77, 42787.68, 0.00, 0.00, 0.00
179, 57157.92, 57164.76, 57248.94, 57223.08, 42729.45, 42743.20, 42785.71, 42774.04, 0.00, 0.00, 0.00
180, 57147.38, 57153.95, 57238.48, 57212.62, 42722.59, 42736.04, 42778.80, 42766.66, 0.00, 0.00, 0.00
181, 57139.98, 57146.52, 57230.93, 57205.22, 42724.60, 42738.50, 42781.24, 42769.23, -0.20, 0.89, 0.29
182, 57129.47, 57136.31, 57220.42, 57194.83, 42716.82, 42730.68, 42773.39, 42761.70, 0.00, 0.00, 0.00
183, 57142.86, 57149.50, 57233.79, 57207.84, 42692.55, 42706.52, 42749.23, 42737.34, 0.00, 0.00, 0.00
184, 57131.68, 57138.07, 57222.70, 57196.70, 42696.39, 42710.18, 42752.94, 42741.09, 0.00, 0.00, 0.00
185, 57108.73, 57115.05, 57199.30, 57173.50, 42706.83, 42720.82, 42763.65, 42751.71, 0.00, 0.00, 0.00
186, 57112.93, 57119.57, 57203.84, 57178.06, 42718.38, 42732.31, 42775.00, 42763.16, 0.00, 0.00, 0.00
187, 57024.84, 57031.34, 57115.66, 57089.84, 42722.65, 42736.22, 42779.16, 42767.16, 0.00, 0.00, 0.00
188, 57075.38, 57081.97, 57166.37, 57140.54, 42738.41, 42752.27, 42795.39, 42783.16, 0.00, 0.00, 0.00
189, 57092.46, 57099.30, 57183.67, 57157.92, 42750.26, 42764.36, 42807.25, 42795.05, 0.00, 0.00, 0.00
190, 57036.17, 57042.99, 57127.28, 57101.39, 42729.98, 42744.16, 42786.89, 42774.73, 0.00, 0.00, 0.00
191, 57016.93, 57023.43, 57107.81, 57081.93, 42733.09, 42746.91, 42789.86, 42777.84, -0.19, 0.89, 0.28
192, 57045.70, 57052.16, 57136.45, 57110.89, 42749.12, 42762.80, 42805.67, 42793.69, 0.00, 0.00, 0.00
193, 57048.80, 57055.48, 57139.68, 57114.14, 42775.38, 42789.35, 42832.31, 42820.31, 0.00, 0.00, 0.00
194, 57057.50, 57064.23, 57148.51, 57122.77, 42744.80, 42758.89, 42801.78, 42789.60, 0.00, 0.00, 0.00
195, 57074.30, 57080.96, 57165.43, 57139.35, 42771.20, 42785.08, 42828.00, 42816.04, 0.00, 0.00, 0.00
196, 57069.88, 57076.12, 57160.81, 57134.81, 42794.74, 42808.44, 42851.46, 42839.55, 0.00, 0.00, 0.00
197, 57054.41, 57060.74, 57145.47, 57119.57, 42810.88, 42824.98, 42867.52, 42855.73, 0.00, 0.00, 0.00
198, 57062.50, 57069.21, 57153.57, 57127.79, 42834.90, 42848.63, 42891.34, 42879.54, 0.00, 0.00, 0.00
199, 57061.77, 57068.20, 57152.65, 57126.79, 42851.00, 42864.41, 42907.39, 42895.45, 0.00, 0.00, 0.00
200, 57060.22, 57066.57, 57150.46, 57124.93, 42862.78, 42876.81, 42919.55, 42907.39, 0.00, 0.00, 0.00
201, 57053.41, 57059.78, 57144.11, 57118.47, 42870.24, 42884.30, 42927.38, 42915.10, -0.11, 0.84, 0.27
202, 57056.38, 57062.57, 57146.97, 57121.33, 42861.79, 42875.43, 42918.68, 42906.25, 0.00, 0.00, 0.00
203, 57066.30, 57072.83, 57157.10, 57131.66, 42849.93, 42863.89, 42906.86, 42894.65, 0.00, 0.00, 0.00
204, 57084.57, 57091.52, 57175.56, 57150.52, 42845.70, 42859.82, 42902.52, 42890.47, 0.00, 0.00, 0.00
205, 57085.35, 57092.10, 57176.41, 57150.93, 42849.25, 42863.61, 42906.18, 42894.29, 0.00, 0.00, 0.00
206, 57084.86, 57091.18, 57175.78, 57150.01, 42871.63, 42886.04, 42928.89, 42916.58, 0.00, 0.00, 0.00
207, 57091.58, 57097.89, 57182.49, 57156.40, 42882.02, 42895.75, 42938.91, 42926.81, 0.00, 0.00, 0.00
208, 57083.27, 57089.53, 57174.04, 57148.34, 42878.67, 42892.26, 42935.38, 42923.53, 0.00, 0.00, 0.00
209, 57080.88, 57087.38, 57171.69, 57146.05, 42859.47, 42873.28, 42916.20, 42904.26, 0.00, 0.00, 0.00
210, 57095.27, 57101.87, 57186.29, 57160.41, 42851.58, 42865.44, 42908.48, 42896.59, 0.00, 0.00, 0.00
211, 57113.24, 57120.13, 57204.46, 57178.62, 42853.75, 42867.49, 42910.79, 42898.79, -0.08, 0.86, 0.40
212, 57125.36, 57132.04, 57216.30, 57190.80, 42853.43, 42867.29, 42910.41, 42898.47, 0.00, 0.00, 0.00
213, 57149.05, 57155.31, 57240.16, 57214.27, 42856.18, 42869.84, 42913.07, 42900.95, 0.00, 0.00, 0.00
214, 57165.57, 57172.27, 57256.83, 57230.72, 42841.12, 42854.75, 42897.94, 42885.75, 0.00, 0.00, 0.00
215, 57182.53, 57189.57, 57273.84, 57248.02, 42823.50, 42837.32, 42880.37, 42868.32, 0.00, 0.00, 0.00
216, 57211.05, 57217.80, 57302.25, 57276.14, 42813.78, 42827.82, 42870.96, 42858.80, 0.00, 0.00, 0.00
217, 57143.60, 57150.26, 57234.61, 57208.66, 42815.70, 42829.74, 42872.63, 42860.47, 0.00, 0.00, 0.00
218, 57210.59, 57217.13, 57301.55, 57275.81, 42806.45, 42820.73, 42863.13, 42851.24, 0.00, 0.00, 0.00
219, 57258.04, 57264.59, 57348.94, 57323.19, 42822.36, 42836.31, 42879.18, 42867.36, 0.00, 0.00, 0.00
220, 57237.25, 57243.78, 57327.84, 57302.32, 42816.84, 42830.50, 42873.66, 42861.66, 0.00, 0.00, 0.00
221, 57225.45, 57232.04, 57316.58, 57291.00, 42812.22, 42826.59, 42869.37, 42857.55, -0.15, 0.92, 0.47
222, 57280.93, 57287.43, 57371.96, 57346.39, 42772.72, 42787.12, 42829.70, 42818.16, 0.00, 0.00, 0.00
223, 57315.88, 57322.34, 57406.90, 57381.35, 42772.36, 42786.64, 42829.27, 42817.54, 0.00, 0.00, 0.00
224, 57342.21, 57348.50, 57433.10, 57407.46, 42782.89, 42796.97, 42839.75, 42828.04, 0.00, 0.00, 0.00
225, 57357.79, 57364.36, 57449.03, 57423.33, 42766.44, 42780.50, 42823.28, 42811.37, 0.00, 0.00, 0.00
226, 57361.64, 57368.16, 57453.17, 57427.24, 42757.50, 42771.54, 42814.23, 42802.05, 0.00, 0.00, 0.00
227, 57378.63, 57384.70, 57469.60, 57443.87, 42752.61, 42767.07, 42809.54, 42797.78, 0.00, 0.00, 0.00
228, 57397.51, 57404.02, 57488.53, 57462.93, 42744.20, 42758.28, 42801.00, 42789.22, 0.00, 0.00, 0.00
229, 57402.21, 57408.96, 57493.33, 57467.72, 42728.60, 42742.50, 42785.21, 42773.41, 0.00, 0.00, 0.00
230, 57400.35, 57407.14, 57491.93, 57466.27, 42723.30, 42737.38, 42779.85, 42768.12, 0.00, 0.00, 0.00
231, 57431.31, 57437.68, 57522.14, 57496.78, 42739.51, 42753.81, 42796.23, 42784.21, 0.00, 0.00, 0.00
232, 57452.07, 57458.60, 57543.29, 57517.70, 42734.34, 42748.54, 42791.23, 42779.20, -0.20, 0.92, 0.45
233, 57467.00, 57473.66, 57558.36, 57532.58, 42722.14, 42736.49, 42778.98, 42767.16, 0.00, 0.00, 0.00
234, 57480.37, 57487.30, 57571.90, 57546.04, 42714.81, 42729.11, 42771.89, 42759.94, 0.00, 0.00, 0.00
235, 57484.26, 57490.99, 57575.36, 57549.73, 42709.55, 42723.52, 42766.39, 42754.26, 0.00, 0.00, 0.00
236, 57503.19, 57509.50, 57594.07, 57568.50, 42713.24, 42727.21, 42770.13, 42757.90, 0.00, 0.00, 0.00
237, 57527.78, 57534.02, 57618.86, 57593.45, 42723.77, 42737.81, 42780.61, 42768.50, 0.00, 0.00, 0.00
238, 57507.71, 57514.03, 57599.28, 57573.24, 42772.92, 42787.03, 42829.94, 42817.52, 0.00, 0.00, 0.00
239, 57133.47, 57140.13, 57224.78, 57198.87, 43792.12, 43806.24, 43849.92, 43837.78, 0.00, 0.00, 0.00
240, 56554.29, 56560.71, 56645.18, 56619.09, 46160.73, 46175.75, 46220.79, 46209.19, 0.00, 0.00, 0.00
241, 56362.56, 56368.84, 56453.26, 56427.00, 47944.94, 47960.72, 48007.48, 47995.81, 0.00, 0.00, 0.00
242, 56298.07, 56304.67, 56388.89, 56362.74, 48886.10, 48901.70, 48949.49, 48938.00, -0.11, 0.84, 0.59
243, 56213.23, 56219.95, 56303.73, 56277.80, 49668.91, 49684.93, 49733.34, 49721.92, 0.00, 0.00, 0.00
244, 56168.73, 56175.30, 56259.25, 56233.05, 50334.47, 50350.72, 50399.47, 50388.52, 0.00, 0.00, 0.00
245, 56167.41, 56173.71, 56257.73, 56231.54, 50761.23, 50777.80, 50826.95, 50816.02, 0.00, 0.00, 0.00
246, 56153.46, 56160.03, 56243.80, 56218.01, 51202.59, 51219.18, 51268.60, 51257.31, 0.00, 0.00, 0.00
247, 56090.11, 56096.08, 56180.28, 56154.38, 51488.74, 51505.77, 51555.26, 51543.86, 0.00, 0.00, 0.00
248, 56168.21, 56174.02, 56258.29, 56232.38, 51679.38, 51696.81, 51746.43, 51735.19, 0.00, 0.00, 0.00
249, 55887.47, 55893.80, 55978.24, 55951.71, 52546.18, 52563.50, 52613.97, 52602.97, 0.00, 0.00, 0.00
250, 54992.31, 54998.99, 55083.04, 55056.05, 55673.63, 55691.70, 55744.98, 55733.89, 0.00, 0.00, 0.00
251, 54580.43, 54587.18, 54670.64, 54643.78, 58311.03, 58329.87, 58385.35, 58374.55, 0.00, 0.00, 0.00
252, 54416.41, 54422.94, 54506.34, 54479.65, 60240.79, 60260.61, 60316.96, 60306.88, -0.06, 0.90, 0.36
253, 54299.94, 54306.15, 54389.84, 54362.95, 61754.45, 61774.43, 61832.43, 61822.04, 0.00, 0.00, 0.00
254, 54144.19, 54150.90, 54233.91, 54206.91, 63196.36, 63217.10, 63276.22, 63265.67, 0.00, 0.00, 0.00
255, 54111.85, 54118.62, 54200.96, 54174.35, 64172.44, 64193.40, 64253.39, 64243.07, 0.00, 0.00, 0.00
0, 54148.82, 54155.55, 54238.14, 54211.50, 64693.95, 64715.29, 64775.35, 64765.09, 0.00, 0.00, 0.00
1, 54105.12, 54111.63, 54194.44, 54167.95, 65242.46, 65264.05, 65324.38, 65314.19, 0.00, 0.00, 0.00
2, 54078.37, 54084.94, 54167.68, 54141.42, 65676.15, 65698.03, 65758.96, 65748.68, 0.00, 0.00, 0.00
3, 54014.13, 54020.61, 54103.51, 54076.89, 66108.91, 66131.34, 66192.43, 66182.10, 0.00, 0.00, 0.00
4, 54031.56, 54038.16, 54121.06, 54094.26, 66285.68, 66307.97, 66369.50, 66359.11, 0.00, 0.00, 0.00
5, 54016.03, 54022.38, 54105.01, 54078.55, 66423.21, 66445.68, 66506.92, 66496.93, 0.00, 0.00, 0.00
6, 53968.75, 53975.19, 54057.87, 54031.18, 66642.59, 66665.15, 66726.52, 66716.91, -0.05, 0.80, 0.43
7, 53986.08, 53992.45, 54074.75, 54048.13, 66654.02, 66676.44, 66737.92, 66727.95, 0.00, 0.00, 0.00
8, 54013.59, 54019.94, 54102.26, 54076.11, 66599.08, 66621.43, 66682.70, 66672.73, 0.00, 0.00, 0.00
9, 54063.77, 54070.21, 54152.17, 54126.45, 66374.30, 66396.50, 66457.99, 66447.45, 0.00, 0.00, 0.00
10, 54021.73, 54028.16, 54110.62, 54084.36, 66302.13, 66324.35, 66385.64, 66375.25, 0.00, 0.00, 0.00
11, 54147.08, 54153.54, 54236.35, 54209.55, 65803.16, 65825.10, 65885.77, 65875.62, 0.00, 0.00, 0.00
12, 53819.64, 53826.04, 53908.45, 53881.85, 66267.87, 66289.93, 66350.95, 66340.83, 0.00, 0.00, 0.00
13, 53323.37, 53329.98, 53411.97, 53385.11, 67972.73, 67995.44, 68058.00, 68047.80, 0.00, 0.00, 0.00
14, 53164.27, 53171.18, 53253.25, 53226.23, 69117.91, 69140.67, 69204.40, 69194.36, 0.00, 0.00, 0.00
15, 53509.38, 53515.95, 53597.94, 53571.27, 68711.41, 68734.67, 68797.57, 68787.71, 0.00, 0.00, 0.00
16, 54058.96, 54065.27, 54147.39, 54121.17, 66635.42, 66657.82, 66719.02, 66708.98, -0.09, 0.78, 0.54
17, 54165.61, 54172.00, 54254.36, 54227.88, 65320.58, 65342.73, 65403.06, 65392.77, 0.00, 0.00, 0.00
18, 54072.18, 54078.34, 54160.60, 54134.54, 64908.19, 64930.05, 64990.04, 64979.83, 0.00, 0.00, 0.00
19, 54077.65, 54083.66, 54165.67, 54139.79, 64560.51, 64582.48, 64642.09, 64631.90, 0.00, 0.00, 0.00
20, 54195.00, 54201.19, 54283.09, 54257.20, 63838.73, 63860.74, 63919.68, 63909.27, 0.00, 0.00, 0.00
21, 54234.34, 54240.53, 54322.63, 54296.86, 62989.76, 63011.13, 63069.51, 63058.94, 0.00, 0.00, 0.00
22, 54384.43, 54390.53, 54472.72, 54446.57, 62021.75, 62042.81, 62100.57, 62090.04, 0.00, 0.00, 0.00
23, 54488.28, 54494.58, 54576.72, 54550.70, 61152.94, 61173.39, 61230.68, 61219.82, 0.00, 0.00, 0.00
24, 54512.86, 54519.23, 54601.27, 54575.67, 60365.49, 60385.79, 60442.38, 60431.70, 0.00, 0.00, 0.00
25, 54480.57, 54487.14, 54568.96, 54543.20, 59767.94, 59788.10, 59843.95, 59833.50, 0.00, 0.00, 0.00
26, 54532.36, 54539.13, 54620.87, 54595.16, 59314.96, 59334.78, 59390.73, 59379.96, 0.00, 0.00, 0.00
27, 54549.63, 54556.16, 54638.23, 54612.42, 58897.02, 58916.60, 58972.37, 58961.39, -0.06, 0.73, 0.56
28, 54315.39, 54321.67, 54403.92, 54378.15, 58595.66, 58614.72, 58670.20, 58659.38, 0.00, 0.00, 0.00
29, 54141.40, 54147.55, 54230.09, 54204.12, 58291.63, 58311.07, 58366.15, 58355.24, 0.00, 0.00, 0.00
30, 54142.61, 54148.77, 54231.36, 54204.99, 57963.32, 57982.68, 58037.44, 58026.76, 0.00, 0.00, 0.00
31, 54137.80, 54144.21, 54226.63, 54200.25, 57634.73, 57654.00, 57708.60, 57697.76, 0.00, 0.00, 0.00
32, 54139.37, 54146.00, 54227.81, 54201.70, 57190.04, 57208.64, 57263.07, 57252.00, 0.00, 0.00, 0.00
33, 54117.01, 54123.72, 54205.57, 54179.38, 56860.67, 56879.27, 56933.38, 56922.14, 0.00, 0.00, 0.00
34, 54110.53, 54116.79, 54198.87, 54172.49, 56587.30, 56606.15, 56659.68, 56648.62, 0.00, 0.00, 0.00
35, 54121.86, 54128.17, 54210.15, 54183.82, 56305.27, 56323.62, 56377.22, 56366.16, 0.00, 0.00, 0.00
36, 54105.93, 54112.14, 54194.13, 54168.00, 56101.16, 56119.39, 56172.82, 56161.68, 0.00, 0.00, 0.00
37, 54064.04, 54070.52, 54152.60, 54126.29, 56001.54, 56019.84, 56073.35, 56062.24, -0.03, 0.68, 0.59
38, 54023.18, 54030.02, 54112.10, 54085.70, 55958.33, 55976.59, 56030.17, 56018.79, 0.00, 0.00, 0.00
39, 53996.11, 54002.57, 54084.58, 54058.68, 55883.45, 55901.80, 55954.98, 55943.98, 0.00, 0.00, 0.00
40, 53935.27, 53941.42, 54023.47, 53997.70, 55889.71, 55908.15, 55961.08, 55950.19, 0.00, 0.00, 0.00
41, 53907.04, 53913.14, 53995.53, 53969.20, 55841.45, 55859.53, 55913.02, 55902.02, 0.00, 0.00, 0.00
42, 53915.65, 53921.93, 54004.38, 53977.79, 55753.50, 55771.69, 55824.66, 55813.98, 0.00, 0.00, 0.00
43, 53891.98, 53898.57, 53980.45, 53954.45, 55718.11, 55736.46, 55789.24, 55778.53, 0.00, 0.00, 0.00
44, 53875.82, 53882.43, 53964.29, 53938.20, 55650.37, 55668.61, 55721.40, 55710.58, 0.00, 0.00, 0.00
45, 53884.40, 53890.97, 53972.75, 53946.69, 55520.10, 55538.27, 55590.91, 55580.09, 0.00, 0.00, 0.00
46, 53881.27, 53888.07, 53969.92, 53943.68, 55384.85, 55402.84, 55455.35, 55444.68, 0.00, 0.00, 0.00
47, 53858.72, 53864.91, 53947.03, 53921.08, 55313.32, 55331.32, 55383.91, 55373.34, -0.06, 0.65, 0.64
48, 53820.88, 53827.22, 53908.70, 53883.19, 55345.27, 55363.10, 55415.98, 55405.17, 0.00, 0.00, 0.00
49, 53814.24, 53820.56, 53902.04, 53876.22, 55311.27, 55329.04, 55382.08, 55370.95, 0.00, 0.00, 0.00
50, 53820.85, 53827.00, 53909.14, 53882.84, 55206.84, 55224.70, 55277.18, 55266.25, 0.00, 0.00, 0.00
51, 53758.11, 53764.64, 53846.54, 53820.09, 55094.79, 55112.56, 55164.95, 55154.16, 0.00, 0.00, 0.00
52, 53784.20, 53790.70, 53872.22, 53846.31, 55009.95, 55027.82, 55079.86, 55069.46, 0.00, 0.00, 0.00
53, 53782.12, 53788.49, 53869.96, 53844.16, 54993.98, 55011.95, 55064.48, 55053.48, 0.00, 0.00, 0.00
54, 53735.25, 53741.93, 53823.27, 53797.38, 55025.61, 55043.70, 55095.91, 55084.78, 0.00, 0.00, 0.00
55, 53673.44, 53679.97, 53761.17, 53735.13, 55008.04, 55025.79, 55078.32, 55067.30, 0.00, 0.00, 0.00
56, 53664.66, 53671.27, 53753.04, 53726.73, 55000.06, 55017.68, 55070.29, 55059.39, 0.00, 0.00, 0.00
57, 53681.33, 53687.91, 53769.69, 53743.56, 54941.73, 54959.32, 55011.75, 55001.18, -0.06, 0.62, 0.73
58, 53662.58, 53668.97, 53750.64, 53724.56, 54901.47, 54919.20, 54971.75, 54960.81, 0.00, 0.00, 0.00
59, 53628.05, 53634.86, 53716.58, 53690.36, 54896.87, 54914.52, 54966.76, 54955.88, 0.00, 0.00, 0.00
60, 53632.09, 53638.69, 53720.58, 53694.30, 54778.54, 54796.33, 54848.56, 54837.54, 0.00, 0.00, 0.00
61, 53628.34, 53634.89, 53716.74, 53690.59, 54639.69, 54657.41, 54709.60, 54698.47, 0.00, 0.00, 0.00
62, 53566.47, 53573.06, 53654.64, 53628.61, 54587.36, 54605.15, 54657.19, 54645.88, 0.00, 0.00, 0.00
63, 53516.13, 53522.68, 53604.36, 53578.02, 54541.63, 54559.38, 54611.43, 54600.23, 0.00, 0.00, 0.00
64, 53523.42, 53529.81, 53611.39, 53585.33, 54481.55, 54499.12, 54551.31, 54540.24, 0.00, 0.00, 0.00
65, 53559.63, 53566.22, 53647.80, 53621.63, 54327.99, 54345.74, 54397.57, 54386.62, 0.00, 0.00, 0.00
66, 53555.43, 53562.00, 53643.65, 53617.65, 54167.08, 54184.72, 54236.08, 54225.20, 0.00, 0.00, 0.00
67, 53559.05, 53565.66, 53647.05, 53621.25, 54036.52, 54053.82, 54105.59, 54094.48, 0.00, 0.00, 0.00
68, 53570.00, 53576.53, 53657.86, 53631.76, 53912.47, 53929.75, 53981.56, 53970.41, -0.06, 0.57, 0.76
69, 53551.05, 53557.30, 53638.84, 53612.56, 53808.45, 53825.82, 53876.98, 53865.96, 0.00, 0.00, 0.00
70, 53504.17, 53510.72, 53592.13, 53566.09, 53745.39, 53762.80, 53814.13, 53803.02, 0.00, 0.00, 0.00
71, 53515.39, 53521.99, 53603.77, 53577.58, 53685.94, 53703.30, 53754.67, 53743.40, 0.00, 0.00, 0.00
72, 53538.86, 53545.37, 53627.06, 53600.93, 53603.53, 53620.71, 53671.90, 53660.95, 0.00, 0.00, 0.00
73, 53521.54, 53528.02, 53609.43, 53583.30, 53484.91, 53501.83, 53553.35, 53542.33, 0.00, 0.00, 0.00
74, 53505.56, 53512.24, 53593.51, 53567.59, 53378.96, 53395.81, 53447.11, 53436.22, 0.00, 0.00, 0.00
75, 53498.03, 53504.91, 53585.98, 53560.10, 53304.21, 53320.96, 53372.54, 53361.55, 0.00, 0.00, 0.00
76, 53486.89, 53493.55, 53574.92, 53548.92, 53275.85, 53292.88, 53343.87, 53333.14, 0.00, 0.00, 0.00
77, 53483.10, 53489.73, 53571.03, 53545.26, 53237.45, 53254.95, 53305.76, 53294.92, 0.00, 0.00, 0.00
78, 53490.41, 53496.95, 53578.71, 53552.63, 53194.18, 53211.54, 53262.64, 53251.20, -0.06, 0.54, 0.76
79, 53484.13, 53490.50, 53572.12, 53545.97, 53161.61, 53178.55, 53230.05, 53218.41, 0.00, 0.00, 0.00
80, 53473.89, 53479.95, 53561.37, 53535.45, 53187.56, 53204.77, 53256.00, 53244.65, 0.00, 0.00, 0.00
81, 53395.61, 53401.87, 53483.30, 53457.12, 53303.25, 53320.49, 53371.67, 53360.34, 0.00, 0.00, 0.00
82, 53376.25, 53382.85, 53463.98, 53437.97, 53376.50, 53393.58, 53444.67, 53433.36, 0.00, 0.00, 0.00
83, 53389.29, 53395.93, 53477.13, 53451.02, 53468.28, 53485.51, 53536.58, 53525.45, 0.00, 0.00, 0.00
84, 53341.30, 53347.64, 53428.94, 53402.92, 53573.53, 53590.72, 53642.33, 53630.80, 0.00, 0.00, 0.00
85, 53283.92, 53290.20, 53371.80, 53345.59, 53684.15, 53701.20, 53752.77, 53741.66, 0.00, 0.00, 0.00
86, 53290.82, 53297.40, 53378.63, 53352.61, 53748.30, 53765.20, 53816.54, 53805.50, 0.00, 0.00, 0.00
87, 53296.88, 53303.39, 53384.37, 53358.55, 53791.68, 53808.70, 53860.17, 53849.11, 0.00, 0.00, 0.00
88, 53296.35, 53302.79, 53383.68, 53357.93, 53834.87, 53851.90, 53903.53, 53892.69, -0.07, 0.52, 0.82
89, 53304.08, 53310.56, 53391.54, 53365.88, 53878.86, 53895.84, 53947.34, 53936.43, 0.00, 0.00, 0.00
90, 53305.04, 53311.34, 53392.50, 53366.82, 53906.97, 53924.27, 53975.62, 53964.44, 0.00, 0.00, 0.00
91, 53305.64, 53312.08, 53393.24, 53367.43, 53910.80, 53928.32, 53979.84, 53968.60, 0.00, 0.00, 0.00
92, 53316.78, 53323.35, 53404.44, 53378.33, 53885.98, 53903.15, 53955.23, 53943.54, 0.00, 0.00, 0.00
93, 53317.43, 53324.06, 53405.02, 53379.18, 53891.93, 53908.96, 53960.64, 53949.69, 0.00, 0.00, 0.00
94, 53306.79, 53313.58, 53394.92, 53368.68, 53942.36, 53959.37, 54010.64, 54000.02, 0.00, 0.00, 0.00
95, 53288.25, 53295.03, 53376.25, 53350.04, 54015.63, 54032.97, 54084.40, 54073.54, 0.00, 0.00, 0.00
96, 53279.20, 53285.84, 53367.22, 53341.18, 54102.53, 54120.14, 54171.80, 54160.80, 0.00, 0.00, 0.00
97, 53268.99, 53275.29, 53356.65, 53330.52, 54141.51, 54158.97, 54211.00, 54199.80, 0.00, 0.00, 0.00
98, 53273.64, 53280.16, 53361.35, 53335.21, 54160.27, 54177.81, 54229.64, 54218.45, -0.08, 0.49, 0.81
99, 53275.89, 53282.67, 53363.60, 53337.36, 54119.56, 54137.24, 54188.50, 54177.56, 0.00, 0.00, 0.00
100, 53285.98, 53292.46, 53373.35, 53347.55, 54121.37, 54138.70, 54189.99, 54179.31, 0.00, 0.00, 0.00
101, 53310.05, 53316.33, 53397.51, 53371.45, 54082.37, 54099.60, 54151.03, 54140.13, 0.00, 0.00, 0.00
102, 53347.82, 53354.15, 53435.42, 53409.52, 53976.09, 53993.30, 54045.15, 54033.91, 0.00, 0.00, 0.00
103, 53352.92, 53359.22, 53440.43, 53414.83, 53880.13, 53897.56, 53949.13, 53938.09, 0.00, 0.00, 0.00
104, 53390.74, 53397.22, 53478.51, 53452.38, 53736.43, 53754.04, 53805.14, 53794.01, 0.00, 0.00, 0.00
105, 53435.06, 53441.54, 53522.57, 53496.91, 53542.02, 53559.45, 53610.43, 53599.05, 0.00, 0.00, 0.00
106, 53456.50, 53463.25, 53543.94, 53518.23, 53391.90, 53408.89, 53460.05, 53448.72, 0.00, 0.00, 0.00
107, 53498.23, 53504.55, 53585.67, 53559.67, 53213.33, 53230.43, 53281.64, 53270.40, 0.00, 0.00, 0.00
108, 53529.03, 53535.15, 53616.38, 53590.74, 53063.46, 53080.77, 53131.61, 53120.33, -0.06, 0.48, 0.80
109, 53522.70, 53529.09, 53610.03, 53584.37, 53032.33, 53049.58, 53100.19, 53088.97, 0.00, 0.00, 0.00
110, 53517.05, 53523.42, 53604.31, 53578.79, 53032.06, 53049.32, 53100.01, 53089.10, 0.00, 0.00, 0.00
111, 53425.20, 53431.69, 53512.78, 53487.07, 53055.80, 53072.85, 53123.68, 53112.57, 0.00, 0.00, 0.00
112, 53398.90, 53405.54, 53486.71, 53461.04, 53184.30, 53201.38, 53252.09, 53240.78, 0.00, 0.00, 0.00
113, 53468.81, 53475.30, 53556.54, 53530.75, 53417.67, 53434.86, 53486.02, 53474.85, 0.00, 0.00, 0.00
114, 53505.27, 53512.11, 53592.89, 53567.21, 53651.07, 53668.19, 53719.49, 53708.47, 0.00, 0.00, 0.00
115, 53473.04, 53479.77, 53560.70, 53535.18, 53843.32, 53860.77, 53912.25, 53901.16, 0.00, 0.00, 0.00
116, 53413.76, 53419.91, 53501.18, 53475.77, 54188.43, 54205.95, 54257.63, 54246.54, 0.00, 0.00, 0.00
117, 53396.93, 53402.70, 53484.08, 53458.55, 54600.50, 54618.16, 54670.09, 54658.93, 0.00, 0.00, 0.00
118, 53374.27, 53380.19, 53461.41, 53435.44, 54883.59, 54901.61, 54953.73, 54942.33, 0.00, 0.00, 0.00
119, 53377.91, 53384.50, 53465.35, 53439.40, 55027.24, 55045.28, 55097.45, 55086.21, -0.02, 0.49, 0.80
120, 53375.76, 53382.42, 53463.71, 53437.45, 55117.46, 55135.14, 55187.62, 55176.26, 0.00, 0.00, 0.00
121, 53378.24, 53384.64, 53465.91, 53439.80, 55193.25, 55211.00, 55263.86, 55252.39, 0.00, 0.00, 0.00
122, 53341.18, 53347.71, 53428.69, 53402.81, 55439.77, 55457.67, 55510.40, 55499.27, 0.00, 0.00, 0.00
123, 53289.55, 53295.90, 53376.97, 53351.02, 55670.35, 55688.34, 55741.14, 55730.09, 0.00, 0.00, 0.00
124, 53192.61, 53199.00, 53280.14, 53254.17, 55923.04, 55940.94, 55994.43, 55983.25, 0.00, 0.00, 0.00
125, 53081.75, 53088.32, 53169.19, 53143.26, 56371.79, 56389.87, 56443.70, 56432.36, 0.00, 0.00, 0.00
126, 52981.37, 52988.14, 53069.10, 53042.86, 56868.51, 56887.16, 56940.98, 56929.96, 0.00, 0.00, 0.00
127, 52890.35, 52896.50, 52977.90, 52951.71, 57338.19, 57356.68, 57410.90, 57399.84, 0.00, 0.00, 0.00
128, 52776.78, 52783.04, 52864.20, 52838.00, 57908.09, 57926.89, 57981.45, 57970.50, 0.00, 0.00, 0.00
129, 52680.15, 52686.79, 52767.82, 52741.20, 58574.13, 58593.04, 58647.93, 58637.48, -0.02, 0.50, 0.81
130, 52691.96, 52698.24, 52778.97, 52752.82, 59182.48, 59201.41, 59256.73, 59246.05, 0.00, 0.00, 0.00
131, 52861.34, 52867.66, 52948.49, 52922.49, 59697.77, 59717.02, 59772.95, 59762.06, 0.00, 0.00, 0.00
132, 52882.84, 52889.28, 52970.10, 52944.11, 60155.85, 60175.54, 60232.16, 60221.16, 0.00, 0.00, 0.00
133, 52776.31, 52783.06, 52863.64, 52837.80, 60793.41, 60813.15, 60870.37, 60859.60, 0.00, 0.00, 0.00
134, 52580.71, 52587.30, 52667.91, 52642.02, 61672.35, 61692.20, 61749.89, 61739.38, 0.00, 0.00, 0.00
135, 52203.30, 52209.88, 52290.52, 52264.21, 63122.80, 63143.05, 63202.26, 63191.46, 0.00, 0.00, 0.00
136, 51779.56, 51785.95, 51866.28, 51840.22, 64988.57, 65009.55, 65069.79, 65059.36, 0.00, 0.00, 0.00
137, 51429.24, 51435.45, 51515.76, 51489.43, 66735.49, 66757.02, 66818.70, 66808.42, 0.00, 0.00, 0.00
138, 50922.26, 50928.47, 51008.82, 50981.94, 69509.32, 69531.42, 69595.75, 69585.60, 0.00, 0.00, 0.00
139, 51227.36, 51233.75, 51313.86, 51287.30, 71175.84, 71199.38, 71264.24, 71254.43, 0.03, 0.50, 1.01
140, 52668.49, 52674.57, 52754.72, 52728.93, 68263.63, 68286.97, 68349.42, 68339.20, 0.00, 0.00, 0.00
141, 53243.17, 53249.07, 53329.50, 53303.95, 65045.30, 65067.51, 65127.62, 65116.84, 0.00, 0.00, 0.00
142, 51993.00, 51999.03, 52079.85, 52053.21, 67235.01, 67257.02, 67319.09, 67308.68, 0.00, 0.00, 0.00
143, 50991.61, 50997.78, 51077.96, 51051.41, 71751.02, 71774.49, 71840.09, 71830.13, 0.00, 0.00, 0.00
144, 50710.21, 50716.57, 50796.66, 50769.62, 74959.68, 74984.29, 75052.46, 75042.76, 0.00, 0.00, 0.00
145, 50920.67, 50927.31, 51007.19, 50980.53, 76017.86, 76043.11, 76112.13, 76102.23, 0.00, 0.00, 0.00
146, 52302.43, 52308.69, 52388.48, 52363.05, 73106.34, 73131.46, 73197.76, 73188.02, 0.00, 0.00, 0.00
147, 53631.98, 53638.38, 53718.53, 53693.25, 67782.34, 67806.09, 67868.08, 67858.06, 0.00, 0.00, 0.00
148, 54204.90, 54211.23, 54291.78, 54266.61, 63698.63, 63721.16, 63779.94, 63769.35, 0.00, 0.00, 0.00
149, 54559.24, 54565.52, 54646.14, 54621.43, 60472.26, 60493.68, 60549.71, 60538.89, -0.03, 0.52, 0.86
150, 54757.82, 54764.14, 54844.88, 54820.29, 58085.41, 58105.88, 58159.91, 58149.13, 0.00, 0.00, 0.00
151, 54909.76, 54916.02, 54997.34, 54972.50, 56217.34, 56237.19, 56289.91, 56278.94, 0.00, 0.00, 0.00
152, 55020.67, 55026.73, 55108.43, 55083.50, 54726.59, 54745.70, 54797.67, 54786.11, 0.00, 0.00, 0.00
153, 55093.83, 55100.40, 55181.96, 55157.00, 53451.04, 53469.57, 53520.73, 53508.87, 0.00, 0.00, 0.00
154, 55154.56, 55160.97, 55242.36, 55217.59, 52425.48, 52443.38, 52493.72, 52481.96, 0.00, 0.00, 0.00
155, 55219.78, 55226.04, 55307.98, 55282.79, 51548.06, 51565.74, 51615.12, 51603.70, 0.00, 0.00, 0.00
156, 55280.54, 55286.48, 55368.55, 55343.66, 50803.97, 50821.36, 50870.31, 50858.73, 0.00, 0.00, 0.00
157, 55319.40, 55325.95, 55407.43, 55382.52, 50100.16, 50117.10, 50165.72, 50153.71, 0.00, 0.00, 0.00
158, 55353.89, 55360.66, 55442.25, 55417.33, 49556.48, 49573.24, 49621.32, 49609.41, 0.00, 0.00, 0.00
159, 55394.86, 55401.23, 55482.95, 55458.05, 49054.93, 49071.60, 49119.14, 49107.29, -0.17, 0.40, 0.72
160, 55431.18, 55437.60, 55519.25, 55494.30, 48601.09, 48617.66, 48664.62, 48652.68, 0.00, 0.00, 0.00
161, 55416.36, 55422.89, 55504.77, 55479.62, 48336.61, 48353.19, 48399.93, 48388.20, 0.00, 0.00, 0.00
162, 55366.34, 55372.80, 55454.68, 55429.51, 48255.87, 48272.30, 48319.30, 48307.32, 0.00, 0.00, 0.00
163, 55346.18, 55352.64, 55434.58, 55409.70, 48188.01, 48204.17, 48251.09, 48239.31, 0.00, 0.00, 0.00
164, 55350.25, 55356.29, 55438.52, 55413.41, 48106.72, 48122.68, 48169.37, 48157.39, 0.00, 0.00, 0.00
165, 55377.29, 55383.48, 55465.81, 55440.68, 47912.06, 47928.04, 47974.51, 47962.89, 0.00, 0.00, 0.00
166, 55392.29, 55398.24, 55480.76, 55455.75, 47691.78, 47707.81, 47753.96, 47742.57, 0.00, 0.00, 0.00
167, 55432.82, 55439.16, 55521.46, 55496.27, 47458.36, 47474.25, 47520.50, 47508.61, 0.00, 0.00, 0.00
168, 55533.82, 55540.30, 55622.27, 55597.30, 47099.41, 47114.64, 47160.82, 47148.86, 0.00, 0.00, 0.00
169, 55576.14, 55582.37, 55664.18, 55639.19, 46735.86, 46750.75, 46796.91, 46784.75, 0.00, 0.00, 0.00
170, 55592.95, 55599.27, 55681.39, 55656.09, 46458.84, 46474.04, 46519.50, 46507.39, -0.17, 0.36, 0.78
171, 55572.31, 55578.59, 55660.96, 55635.59, 46241.09, 46256.06, 46301.50, 46289.43, 0.00, 0.00, 0.00
172, 55573.83, 55580.25, 55662.79, 55637.43, 46066.00, 46081.09, 46126.36, 46114.38, 0.00, 0.00, 0.00
173, 55663.64, 55670.06, 55752.56, 55727.32, 45870.38, 45885.76, 45930.62, 45918.71, 0.00, 0.00, 0.00
174, 55690.00, 55696.39, 55778.62, 55753.32, 45702.23, 45717.70, 45762.31, 45750.64, 0.00, 0.00, 0.00
175, 55666.32, 55672.85, 55754.79, 55729.85, 45576.12, 45591.16, 45635.98, 45624.04, 0.00, 0.00, 0.00
176, 55687.74, 55694.09, 55776.23, 55751.38, 45458.51, 45473.80, 45518.19, 45506.16, 0.00, 0.00, 0.00
177, 55742.37, 55749.07, 55831.14, 55806.11, 45356.40, 45371.67, 45416.15, 45404.41, 0.00, 0.00, 0.00
178, 55759.98, 55766.24, 55848.54, 55823.34, 45234.92, 45249.85, 45294.22, 45282.60, 0.00, 0.00, 0.00
179, 55790.51, 55796.68, 55879.02, 55853.86, 45116.14, 45130.90, 45175.31, 45163.46, 0.00, 0.00, 0.00
180, 55821.82, 55828.31, 55910.79, 55885.46, 45013.98, 45029.02, 45073.45, 45061.50, -0.07, 0.43, 0.75
181, 55859.71, 55866.20, 55948.74, 55923.30, 44919.98, 44935.07, 44979.29, 44967.48, 0.00, 0.00, 0.00
182, 55888.28, 55894.58, 55977.13, 55952.47, 44852.15, 44867.17, 44911.36, 44899.13, 0.00, 0.00, 0.00
183, 55910.45, 55916.69, 55999.54, 55974.67, 44780.67, 44795.49, 44839.77, 44827.45, 0.00, 0.00, 0.00
184, 55949.72, 55955.89, 56038.86, 56013.67, 44700.27, 44715.09, 44759.46, 44747.39, 0.00, 0.00, 0.00
185, 56004.33, 56010.54, 56093.09, 56067.85, 44638.85, 44653.71, 44697.81, 44685.85, 0.00, 0.00, 0.00
186, 56079.14, 56085.75, 56168.12, 56143.09, 44586.39, 44601.63, 44645.53, 44633.44, 0.00, 0.00, 0.00
187, 56124.25, 56130.77, 56213.27, 56188.21, 44519.29, 44534.57, 44578.45, 44566.54, 0.00, 0.00, 0.00
188, 56155.27, 56161.95, 56244.48, 56219.46, 44487.10, 44502.10, 44545.86, 44534.02, 0.00, 0.00, 0.00
189, 56178.71, 56185.00, 56267.86, 56242.78, 44439.80, 44454.82, 44498.88, 44486.74, 0.00, 0.00, 0.00
190, 56198.54, 56204.82, 56287.73, 56262.49, 44399.30, 44414.32, 44458.11, 44446.11, -0.14, 0.40, 0.82
191, 56210.97, 56217.54, 56300.18, 56275.14, 44373.98, 44388.98, 44432.74, 44420.96, 0.00, 0.00, 0.00
192, 56237.66, 56244.25, 56326.57, 56301.76, 44329.18, 44343.98, 44387.88, 44376.08, 0.00, 0.00, 0.00
193, 56266.94, 56273.73, 56356.39, 56331.22, 44295.57, 44310.30, 44354.09, 44342.02, 0.00, 0.00, 0.00
194, 56303.35, 56309.92, 56392.58, 56367.50, 44259.40, 44274.11, 44317.85, 44305.85, 0.00, 0.00, 0.00
195, 56326.26, 56332.61, 56415.60, 56390.30, 44206.74, 44221.41, 44265.37, 44253.41, 0.00, 0.00, 0.00
196, 56354.00, 56360.66, 56443.45, 56418.13, 44155.89, 44170.78, 44214.25, 44202.38, 0.00, 0.00, 0.00
197, 56388.66, 56394.86, 56478.07, 56453.11, 44121.07, 44136.00, 44179.25, 44167.56, 0.00, 0.00, 0.00
198, 56276.53, 56282.96, 56365.84, 56340.70, 44425.83, 44440.32, 44484.57, 44472.66, 0.00, 0.00, 0.00
199, 55323.00, 55329.37, 55412.34, 55386.50, 47277.04, 47292.20, 47338.80, 47326.87, 0.00, 0.00, 0.00
200, 54705.80, 54712.24, 54794.99, 54768.79, 50788.97, 50805.36, 50854.24, 50842.82, -0.28, 0.38, 0.82
201, 54604.97, 54611.70, 54694.18, 54668.07, 52809.14, 52826.16, 52877.07, 52865.99, 0.00, 0.00, 0.00
202, 54879.97, 54886.41, 54968.91, 54943.25, 53022.05, 53039.50, 53090.73, 53079.27, 0.00, 0.00, 0.00
203, 54537.00, 54543.24, 54626.12, 54599.75, 54357.47, 54375.00, 54427.64, 54416.19, 0.00, 0.00, 0.00
204, 54098.02, 54104.54, 54186.93, 54160.31, 56726.13, 56744.57, 56798.35, 56787.45, 0.00, 0.00, 0.00
205, 53893.79, 53900.16, 53982.32, 53955.68, 58447.66, 58466.75, 58521.96, 58510.92, 0.00, 0.00, 0.00
206, 53776.30, 53782.92, 53865.11, 53838.62, 59706.34, 59725.76, 59782.22, 59771.09, 0.00, 0.00, 0.00
207, 53739.87, 53746.40, 53828.25, 53801.74, 60681.68, 60701.59, 60758.66, 60747.70, 0.00, 0.00, 0.00
208, 53643.98, 53650.46, 53732.21, 53705.96, 61614.01, 61634.33, 61692.02, 61681.11, 0.00, 0.00, 0.00
209, 53504.62, 53510.99, 53593.02, 53566.49, 62619.64, 62640.11, 62698.61, 62688.06, 0.00, 0.00, 0.00
210, 53467.11, 53473.77, 53555.52, 53528.98, 63377.61, 63398.51, 63457.52, 63446.88, 0.00, 0.00, 0.00
211, 53348.05, 53354.62, 53436.13, 53409.85, 64113.27, 64134.37, 64194.01, 64183.61, -0.22, 0.37, 0.88
212, 53128.66, 53135.17, 53216.60, 53189.98, 65207.55, 65229.18, 65289.55, 65278.96, 0.00, 0.00, 0.00
213, 53053.41, 53059.71, 53141.11, 53114.79, 66067.02, 66089.03, 66150.05, 66139.44, 0.00, 0.00, 0.00
214, 53046.81, 53053.27, 53134.74, 53108.28, 66561.84, 66583.95, 66645.61, 66635.09, 0.00, 0.00, 0.00
215, 53009.95, 53016.41, 53097.93, 53071.45, 67020.34, 67042.45, 67104.54, 67093.99, 0.00, 0.00, 0.00
216, 52937.91, 52944.31, 53025.55, 52999.18, 67460.80, 67483.31, 67545.43, 67535.15, 0.00, 0.00, 0.00
217, 52873.34, 52879.55, 52960.96, 52934.72, 67935.98, 67958.40, 68020.73, 68010.74, 0.00, 0.00, 0.00
218, 52812.95, 52819.52, 52900.50, 52874.64, 68379.10, 68401.61, 68464.46, 68454.25, 0.00, 0.00, 0.00
219, 52773.70, 52780.27, 52861.38, 52834.96, 68756.96, 68780.12, 68843.08, 68832.69, 0.00, 0.00, 0.00
220, 52746.96, 52753.49, 52834.58, 52808.30, 69019.91, 69043.28, 69106.45, 69096.21, 0.00, 0.00, 0.00
221, 52719.88, 52726.31, 52807.36, 52780.94, 69214.66, 69237.74, 69301.54, 69291.21, -0.14, 0.35, 0.88
222, 52700.11, 52706.55, 52787.22, 52761.05, 69389.63, 69412.87, 69477.22, 69466.88, 0.00, 0.00, 0.00
223, 52693.34, 52700.07, 52780.71, 52754.50, 69572.24, 69595.48, 69659.30, 69649.51, 0.00, 0.00, 0.00
224, 52692.80, 52699.31, 52780.27, 52753.94, 69686.21, 69709.30, 69773.18, 69763.32, 0.00, 0.00, 0.00
225, 52722.33, 52728.66, 52809.53, 52783.29, 69687.17, 69710.73, 69774.52, 69764.58, 0.00, 0.00, 0.00
226, 52785.25, 52791.76, 52872.40, 52846.18, 69546.69, 69570.23, 69633.80, 69623.94, 0.00, 0.00, 0.00
227, 52955.10, 52961.65, 53042.57, 53016.53, 69022.45, 69046.26, 69109.13, 69099.03, 0.00, 0.00, 0.00
228, 53125.63, 53132.11, 53213.09, 53187.34, 68352.37, 68376.13, 68438.54, 68428.25, 0.00, 0.00, 0.00
229, 53682.52, 53688.93, 53769.58, 53744.41, 66531.46, 66554.41, 66615.39, 66605.05, 0.00, 0.00, 0.00
230, 53791.48, 53797.99, 53878.72, 53853.38, 65010.47, 65032.27, 65092.17, 65081.75, 0.00, 0.00, 0.00
231, 53554.35, 53560.79, 53641.86, 53616.13, 64975.80, 64997.89, 65058.06, 65047.39, -0.19, 0.36, 0.91
232, 53426.66, 53432.87, 53513.94, 53488.26, 65128.87, 65151.02, 65211.28, 65200.50, 0.00, 0.00, 0.00
233, 53545.61, 53551.96, 53633.07, 53607.44, 64999.12, 65021.04, 65080.99, 65070.51, 0.00, 0.00, 0.00
234, 53635.45, 53641.52, 53722.75, 53696.84, 64691.15, 64713.17, 64772.85, 64762.30, 0.00, 0.00, 0.00
235, 53604.38, 53610.59, 53691.73, 53666.16, 64520.32, 64542.36, 64601.95, 64591.24, 0.00, 0.00, 0.00
236, 53557.04, 53563.41, 53644.70, 53619.11, 64413.50, 64435.36, 64494.88, 64484.27, 0.00, 0.00, 0.00
237, 53611.02, 53617.12, 53698.25, 53672.59, 64245.91, 64267.72, 64327.09, 64316.76, 0.00, 0.00, 0.00
238, 53690.95, 53697.63, 53778.36, 53752.50, 63930.10, 63951.56, 64010.68, 64000.60, 0.00, 0.00, 0.00
239, 53753.21, 53759.95, 53840.79, 53815.13, 63600.01, 63621.54, 63680.32, 63669.90, 0.00, 0.00, 0.00
240, 53774.85, 53781.29, 53862.70, 53837.04, 63399.36, 63420.86, 63479.38, 63469.03, 0.00, 0.00, 0.00
241, 53841.17, 53847.16, 53928.50, 53903.04, 63041.77, 63063.30, 63121.30, 63110.77, -0.18, 0.34, 0.93
242, 54096.45, 54102.93, 54183.96, 54158.59, 62184.74, 62206.11, 62263.49, 62252.85, 0.00, 0.00, 0.00
243, 54862.06, 54868.48, 54949.55, 54924.67, 59558.97, 59579.64, 59634.99, 59624.50, 0.00, 0.00, 0.00
244, 55284.20, 55290.37, 55372.29, 55347.39, 56884.99, 56904.77, 56957.90, 56947.10, 0.00, 0.00, 0.00
245, 55443.37, 55449.71, 55531.59, 55506.58, 55028.05, 55047.27, 55099.08, 55087.91, 0.00, 0.00, 0.00
246, 55546.07, 55552.33, 55633.91, 55609.24, 53591.25, 53609.56, 53660.57, 53649.13, 0.00, 0.00, 0.00
247, 55641.76, 55648.53, 55729.80, 55705.17, 52458.40, 52476.48, 52526.33, 52515.22, 0.00, 0.00, 0.00
248, 55720.86, 55727.66, 55809.44, 55784.50, 51507.38, 51524.66, 51574.14, 51563.10, 0.00, 0.00, 0.00
249, 55768.02, 55774.75, 55856.80, 55831.93, 50701.69, 50718.95, 50767.63, 50756.29, 0.00, 0.00, 0.00
250, 55803.18, 55809.35, 55891.79, 55866.71, 50031.32, 50048.82, 50096.74, 50084.91, 0.00, 0.00, 0.00
251, 55845.45, 55851.49, 55934.03, 55909.07, 49460.36, 49477.02, 49524.94, 49513.23, -0.19, 0.28, 0.90
252, 55882.24, 55888.48, 55970.84, 55946.04, 48957.63, 48973.83, 49021.22, 49009.93, 0.00, 0.00, 0.00
253, 55915.88, 55922.12, 56004.53, 55979.34, 48522.84, 48539.00, 48585.96, 48574.90, 0.00, 0.00, 0.00
254, 55948.92, 55955.02, 56037.50, 56012.48, 48143.13, 48159.69, 48206.30, 48194.41, 0.00, 0.00, 0.00
255, 55981.62, 55987.96, 56070.31, 56045.57, 47788.90, 47805.33, 47851.98, 47839.79, 0.00, 0.00, 0.00
0, 55998.38, 56004.44, 56086.98, 56062.20, 47481.34, 47497.19, 47543.41, 47531.61, 0.00, 0.00, 0.00
1, 56034.88, 56041.16, 56123.95, 56098.70, 47193.23, 47208.94, 47255.07, 47243.16, 0.00, 0.00, 0.00
2, 56111.17, 56117.45, 56199.95, 56175.18, 46951.54, 46967.23, 47012.96, 47001.25, 0.00, 0.00, 0.00
3, 56166.33, 56172.75, 56255.07, 56230.08, 46724.06, 46739.82, 46785.26, 46773.71, 0.00, 0.00, 0.00
4, 56184.82, 56191.23, 56273.82, 56248.52, 46495.88, 46511.41, 46556.83, 46544.91, 0.00, 0.00, 0.00
5, 56203.35, 56209.94, 56292.35, 56267.36, 46288.74, 46304.50, 46349.45, 46337.73, 0.00, 0.00, 0.00
6, 56139.02, 56145.37, 56227.98, 56202.92, 46136.17, 46151.52, 46196.54, 46185.05, -0.12, 0.33, 0.94
7, 56224.14, 56230.64, 56313.34, 56288.33, 45953.00, 45968.21, 46013.48, 46001.61, 0.00, 0.00, 0.00
8, 56249.10, 56255.50, 56338.26, 56313.16, 45813.32, 45828.54, 45873.76, 45861.73, 0.00, 0.00, 0.00
9, 56233.16, 56239.60, 56322.35, 56297.38, 45694.36, 45709.52, 45754.22, 45742.55, 0.00, 0.00, 0.00
10, 56208.94, 56215.60, 56298.34, 56273.40, 45564.72, 45579.96, 45624.45, 45612.84, 0.00, 0.00, 0.00
11, 56257.57, 56264.28, 56347.32, 56322.19, 45466.04, 45481.44, 45526.05, 45514.45, 0.00, 0.00, 0.00
12, 56300.22, 56307.11, 56389.74, 56364.37, 45371.94, 45387.43, 45431.80, 45420.11, 0.00, 0.00, 0.00
13, 56319.49, 56326.30, 56409.18, 56383.57, 45265.66, 45280.79, 45325.36, 45313.76, 0.00, 0.00, 0.00
14, 56335.63, 56342.62, 56425.55, 56400.22, 45171.04, 45186.15, 45230.52, 45219.14, 0.00, 0.00, 0.00
15, 56363.72, 56370.47, 56453.55, 56428.56, 45055.62, 45070.52, 45114.74, 45103.38, 0.00, 0.00, 0.00
16, 56388.29, 56394.66, 56477.65, 56452.75, 44973.38, 44988.43, 45032.89, 45020.95, -0.06, 0.33, 1.05
17, 56403.82, 56410.35, 56493.32, 56468.20, 44877.03, 44892.43, 44936.44, 44924.50, 0.00, 0.00, 0.00
18, 56404.36, 56410.95, 56493.70, 56468.57, 44778.54, 44793.65, 44837.69, 44825.53, 0.00, 0.00, 0.00
19, 56421.12, 56428.00, 56510.55, 56485.58, 44720.90, 44735.65, 44779.91, 44767.88, 0.00, 0.00, 0.00
20, 56438.82, 56445.75, 56528.41, 56503.49, 44643.00, 44658.07, 44702.23, 44690.55, 0.00, 0.00, 0.00
21, 56448.52, 56455.09, 56538.04, 56512.90, 44590.19, 44604.78, 44649.31, 44637.01, 0.00, 0.00, 0.00
22, 56440.68, 56447.00, 56530.04, 56505.21, 44521.21, 44535.85, 44580.04, 44567.84, 0.00, 0.00, 0.00
23, 56441.04, 56447.41, 56530.38, 56505.23, 44461.93, 44476.82, 44520.89, 44508.71, 0.00, 0.00, 0.00
24, 56454.74, 56461.24, 56544.10, 56518.91, 44418.55, 44432.88, 44477.27, 44465.38, 0.00, 0.00, 0.00
25, 56463.54, 56469.82, 56553.13, 56527.87, 44378.02, 44392.35, 44436.43, 44424.63, 0.00, 0.00, 0.00
26, 56461.27, 56467.39, 56550.76, 56525.44, 44323.64, 44338.08, 44382.18, 44370.04, -0.03, 0.28, 0.85
27, 56459.81, 56466.00, 56549.13, 56523.89, 44288.71, 44303.50, 44347.40, 44335.49, 0.00, 0.00, 0.00
28, 56467.84, 56474.05, 56557.06, 56531.65, 44254.29, 44269.02, 44312.73, 44300.95, 0.00, 0.00, 0.00
29, 56484.09, 56490.55, 56573.74, 56548.10, 44197.98, 44212.15, 44255.67, 44244.14, 0.00, 0.00, 0.00
30, 56487.19, 56493.32, 56576.69, 56551.32, 44153.21, 44167.47, 44211.05, 44199.50, 0.00, 0.00, 0.00
31, 56479.73, 56486.16, 56569.29, 56544.01, 44114.32, 44128.91, 44172.25, 44160.90, 0.00, 0.00, 0.00
32, 56504.43, 56511.18, 56594.05, 56568.87, 44084.07, 44098.74, 44142.19, 44130.16, 0.00, 0.00, 0.00
33, 56521.68, 56527.98, 56611.18, 56586.19, 44059.60, 44073.97, 44117.76, 44105.58, 0.00, 0.00, 0.00
34, 56511.89, 56518.11, 56601.39, 56576.31, 44025.31, 44039.55, 44083.65, 44071.69, 0.00, 0.00, 0.00
35, 56510.15, 56516.72, 56599.80, 56574.43, 43993.53, 44007.84, 44051.84, 44039.75, 0.00, 0.00, 0.00
36, 56434.80, 56441.53, 56524.34, 56498.97, 43989.26, 44003.65, 44047.60, 44035.53, -0.19, 0.27, 0.85
37, 56524.48, 56530.98, 56613.86, 56588.65, 43957.12, 43971.56, 44015.19, 44003.52, 0.00, 0.00, 0.00
38, 56550.43, 56556.57, 56639.61, 56614.66, 43924.48, 43938.86, 43982.35, 43970.86, 0.00, 0.00, 0.00
39, 56531.27, 56537.33, 56620.88, 56595.71, 43919.19, 43933.63, 43977.37, 43965.50, 0.00, 0.00, 0.00
40, 56491.04, 56497.45, 56580.96, 56555.45, 43890.06, 43904.59, 43948.36, 43936.31, 0.00, 0.00, 0.00
41, 56514.93, 56521.70, 56604.72, 56579.30, 43844.58, 43859.13, 43902.91, 43890.87, 0.00, 0.00, 0.00
42, 56538.69, 56545.15, 56628.30, 56603.06, 43828.51, 43843.14, 43886.82, 43874.59, 0.00, 0.00, 0.00
43, 56544.39, 56550.92, 56634.20, 56609.01, 43806.07, 43820.68, 43864.22, 43852.20, 0.00, 0.00, 0.00
44, 56543.05, 56549.87, 56632.90, 56607.82, 43772.14, 43786.53, 43829.87, 43818.29, 0.00, 0.00, 0.00
45, 56550.61, 56556.91, 56640.21, 56614.62, 43738.54, 43752.71, 43796.12, 43784.50, 0.00, 0.00, 0.00
46, 56557.13, 56563.43, 56647.10, 56621.64, 43739.32, 43753.32, 43796.88, 43785.05, -0.11, 0.21, 0.94
47, 56553.24, 56559.39, 56643.25, 56618.00, 43721.82, 43736.19, 43779.33, 43767.71, 0.00, 0.00, 0.00
48, 56556.35, 56562.61, 56646.49, 56621.06, 43719.56, 43733.71, 43777.23, 43765.45, 0.00, 0.00, 0.00
49, 56572.06, 56578.72, 56662.18, 56636.73, 43688.47, 43702.44, 43746.05, 43734.20, 0.00, 0.00, 0.00
50, 56583.93, 56590.64, 56674.14, 56648.66, 43675.46, 43689.68, 43733.06, 43721.29, 0.00, 0.00, 0.00
51, 56578.79, 56585.03, 56668.64, 56643.07, 43662.61, 43677.03, 43720.55, 43708.57, 0.00, 0.00, 0.00
52, 56579.71, 56585.92, 56669.52, 56643.90, 43663.44, 43678.01, 43721.11, 43709.41, 0.00, 0.00, 0.00
53, 56585.81, 56592.27, 56675.53, 56649.98, 43664.11, 43678.59, 43722.20, 43710.13, 0.00, 0.00, 0.00
54, 56583.75, 56590.28, 56673.58, 56648.10, 43637.67, 43651.82, 43695.74, 43683.64, 0.00, 0.00, 0.00
55, 56592.29, 56599.06, 56682.34, 56657.31, 43650.18, 43664.62, 43708.14, 43696.05, 0.00, 0.00, 0.00
56, 56588.94, 56595.55, 56679.26, 56653.78, 43656.06, 43670.75, 43714.09, 43701.82, 0.00, 0.00, 0.00
57, 56590.57, 56597.27, 56680.78, 56655.10, 43653.18, 43667.57, 43710.80, 43698.78, -0.12, 0.20, 0.95
58, 56601.12, 56607.87, 56691.15, 56665.56, 43645.00, 43659.73, 43702.80, 43691.07, 0.00, 0.00, 0.00
59, 56603.51, 56609.88, 56693.32, 56668.04, 43620.52, 43634.85, 43677.97, 43666.30, 0.00, 0.00, 0.00
60, 56601.63, 56608.12, 56691.73, 56666.54, 43589.86, 43604.59, 43647.75, 43635.83, 0.00, 0.00, 0.00
61, 56610.20, 56616.96, 56700.47, 56675.21, 43580.87, 43595.31, 43638.74, 43626.82, 0.00, 0.00, 0.00
62, 56641.53, 56648.35, 56731.77, 56705.88, 43583.80, 43598.28, 43641.38, 43629.46, 0.00, 0.00, 0.00
63, 56663.88, 56670.43, 56753.76, 56728.26, 43568.80, 43583.08, 43626.04, 43614.46, 0.00, 0.00, 0.00
64, 56655.55, 56662.25, 56745.45, 56720.30, 43570.72, 43584.85, 43628.05, 43616.41, 0.00, 0.00, 0.00
65, 56658.56, 56665.31, 56748.39, 56723.16, 43560.55, 43574.70, 43617.82, 43605.88, 0.00, 0.00, 0.00
66, 56561.94, 56568.33, 56651.52, 56626.38, 43559.44, 43573.38, 43616.75, 43604.65, 0.00, 0.00, 0.00
67, 56628.63, 56635.05, 56718.18, 56693.48, 43516.92, 43531.03, 43574.50, 43562.41, -0.15, 0.18, 0.91
68, 56652.08, 56658.43, 56741.62, 56716.90, 43495.44, 43509.86, 43553.13, 43541.33, 0.00, 0.00, 0.00
69, 56648.19, 56654.65, 56737.82, 56712.54, 43500.36, 43514.64, 43557.85, 43546.07, 0.00, 0.00, 0.00
70, 56619.18, 56625.68, 56709.30, 56683.53, 43502.10, 43516.77, 43559.73, 43547.81, 0.00, 0.00, 0.00
71, 56630.22, 56636.55, 56720.23, 56694.73, 43508.90, 43523.47, 43566.52, 43554.79, 0.00, 0.00, 0.00
72, 56655.48, 56661.89, 56745.55, 56720.25, 43484.98, 43499.31, 43542.27, 43530.49, 0.00, 0.00, 0.00
73, 56662.21, 56668.87, 56752.17, 56727.12, 43480.02, 43494.37, 43537.33, 43525.37, 0.00, 0.00, 0.00
74, 56668.49, 56674.84, 56758.32, 56733.00, 43465.47, 43480.02, 43522.82, 43511.13, 0.00, 0.00, 0.00
75, 56675.95, 56682.46, 56766.19, 56740.57, 43459.37, 43473.83, 43516.59, 43504.90, 0.00, 0.00, 0.00
76, 56663.75, 56670.25, 56753.71, 56728.55, 43470.48, 43485.00, 43527.92, 43516.07, 0.00, 0.00, 0.00
77, 56652.57, 56658.94, 56742.36, 56717.37, 43461.16, 43475.10, 43518.60, 43506.53, -0.19, 0.18, 0.93
78, 56655.43, 56661.89, 56745.47, 56720.25, 43464.20, 43478.30, 43521.77, 43509.57, 0.00, 0.00, 0.00
79, 56664.22, 56670.63, 56754.25, 56728.75, 43495.62, 43510.04, 43553.04, 43541.29, 0.00, 0.00, 0.00
80, 56657.87, 56664.44, 56748.02, 56722.38, 43445.55, 43459.79, 43503.22, 43491.15, 0.00, 0.00, 0.00
81, 56656.17, 56662.99, 56746.36, 56720.95, 43431.02, 43445.17, 43488.65, 43476.33, 0.00, 0.00, 0.00
82, 56665.09, 56671.75, 56755.37, 56729.98, 43433.26, 43447.16, 43490.35, 43478.39, 0.00, 0.00, 0.00
83, 56680.49, 56686.86, 56770.23, 56745.15, 43424.88, 43438.91, 43482.05, 43470.10, 0.00, 0.00, 0.00
84, 56693.43, 56699.73, 56783.26, 56758.07, 43412.65, 43426.87, 43470.07, 43458.16, 0.00, 0.00, 0.00
85, 56693.61, 56700.52, 56783.91, 56758.41, 43409.70, 43423.98, 43467.26, 43455.34, 0.00, 0.00, 0.00
86, 56705.66, 56712.32, 56795.85, 56770.43, 43399.00, 43413.21, 43456.28, 43444.17, 0.00, 0.00, 0.00
87, 56721.53, 56727.68, 56811.23, 56786.04, 43384.87, 43399.17, 43442.18, 43430.02, -0.13, 0.20, 0.98
88, 56719.23, 56725.60, 56809.10, 56783.87, 43367.50, 43381.47, 43425.04, 43412.70, 0.00, 0.00, 0.00
89, 56721.44, 56727.99, 56811.70, 56786.21, 43371.01, 43385.16, 43428.50, 43416.52, 0.00, 0.00, 0.00
90, 56734.78, 56741.64, 56825.08, 56799.67, 43369.38, 43383.57, 43427.11, 43414.95, 0.00, 0.00, 0.00
91, 56746.36, 56752.89, 56836.28, 56810.93, 43358.05, 43372.51, 43415.54, 43403.69, 0.00, 0.00, 0.00
92, 56768.20, 56774.57, 56858.07, 56832.77, 43361.22, 43375.86, 43418.78, 43406.82, 0.00, 0.00, 0.00
93, 56783.69, 56790.53, 56873.77, 56848.38, 43340.23, 43354.58, 43397.50, 43385.52, 0.00, 0.00, 0.00
94, 56782.55, 56789.21, 56872.74, 56847.55, 43347.21, 43361.29, 43404.18, 43392.51, 0.00, 0.00, 0.00
95, 56797.34, 56804.14, 56887.82, 56862.30, 43341.51, 43355.66, 43398.61, 43386.66, 0.00, 0.00, 0.00
96, 56721.06, 56727.61, 56811.07, 56785.54, 43331.16, 43345.82, 43388.78, 43376.82, 0.00, 0.00, 0.00
97, 56784.65, 56791.13, 56875.02, 56849.67, 43304.78, 43319.04, 43362.00, 43350.16, 0.00, 0.00, 0.00
98, 56797.64, 56803.74, 56887.94, 56862.57, 43276.17, 43290.70, 43333.64, 43321.55, -0.04, 0.21, 0.99
99, 56795.20, 56801.61, 56885.19, 56859.95, 43254.16, 43268.59, 43311.22, 43299.33, 0.00, 0.00, 0.00
100, 56737.11, 56743.41, 56826.94, 56801.97, 43248.97, 43263.27, 43306.08, 43294.21, 0.00, 0.00, 0.00
101, 56739.59, 56746.41, 56829.87, 56804.54, 43274.05, 43288.31, 43331.49, 43319.33, 0.00, 0.00, 0.00
102, 56772.20, 56779.08, 56862.55, 56837.15, 43302.86, 43317.23, 43360.06, 43348.14, 0.00, 0.00, 0.00
103, 56780.65, 56787.64, 56870.93, 56845.69, 43278.52, 43292.76, 43335.96, 43324.36, 0.00, 0.00, 0.00
104, 56783.96, 56790.73, 56874.13, 56849.11, 43243.14, 43257.11, 43300.40, 43288.80, 0.00, 0.00, 0.00
105, 56777.05, 56783.84, 56867.38, 56842.05, 43223.98, 43237.95, 43281.20, 43269.11, 0.00, 0.00, 0.00
106, 56779.26, 56786.48, 56869.70, 56844.35, 43208.51, 43222.59, 43265.69, 43253.44, 0.00, 0.00, 0.00
107, 56784.07, 56791.15, 56874.64, 56849.22, 43165.31, 43179.48, 43222.08, 43210.17, 0.00, 0.00, 0.00
108, 56788.98, 56795.40, 56879.33, 56854.07, 43175.10, 43189.31, 43232.03, 43220.43, -0.03, 0.19, 0.98
109, 56794.89, 56801.28, 56884.99, 56859.44, 43227.09, 43241.44, 43284.24, 43272.55, 0.00, 0.00, 0.00
110, 56795.00, 56801.52, 56884.88, 56859.73, 43222.26, 43236.41, 43279.30, 43267.41, 0.00, 0.00, 0.00
111, 56800.90, 56807.40, 56891.13, 56865.77, 43191.37, 43205.65, 43248.48, 43236.45, 0.00, 0.00, 0.00
112, 56811.63, 56818.36, 56902.09, 56876.49, 43190.41, 43204.71, 43247.70, 43235.78, 0.00, 0.00, 0.00
113, 56810.06, 56816.77, 56900.36, 56875.00, 43193.70, 43207.78, 43251.07, 43239.14, 0.00, 0.00, 0.00
114, 56810.04, 56816.55, 56900.30, 56874.82, 43195.68, 43209.90, 43253.04, 43240.95, 0.00, 0.00, 0.00
115, 56811.27, 56817.37, 56901.17, 56875.82, 43192.75, 43207.08, 43250.27, 43238.04, 0.00, 0.00, 0.00
116, 56810.29, 56816.86, 56900.72, 56875.15, 43189.16, 43203.48, 43246.51, 43234.55, 0.00, 0.00, 0.00
117, 56818.38, 56824.93, 56908.97, 56883.31, 43178.38, 43192.49, 43235.56, 43223.51, 0.00, 0.00, 0.00
118, 56807.09, 56813.57, 56897.44, 56871.62, 43184.91, 43198.95, 43242.13, 43229.95, -0.06, 0.16, 0.99
119, 56797.59, 56804.18, 56887.82, 56862.12, 43193.92, 43208.02, 43250.94, 43239.07, 0.00, 0.00, 0.00
120, 56805.19, 56811.72, 56895.45, 56869.68, 43175.77, 43190.23, 43233.10, 43221.10, 0.00, 0.00, 0.00
121, 56810.73, 56817.26, 56900.79, 56875.31, 43170.58, 43185.09, 43228.09, 43215.80, 0.00, 0.00, 0.00
122, 56821.95, 56828.44, 56911.72, 56886.73, 43174.32, 43188.55, 43231.58, 43219.53, 0.00, 0.00, 0.00
123, 56818.36, 56824.48, 56908.10, 56883.13, 43181.40, 43195.84, 43238.60, 43226.66, 0.00, 0.00, 0.00
124, 56811.41, 56817.62, 56901.37, 56876.00, 43181.45, 43196.06, 43238.75, 43226.80, 0.00, 0.00, 0.00
125, 56812.86, 56819.45, 56903.02, 56877.68, 43184.80, 43199.17, 43242.09, 43230.51, 0.00, 0.00, 0.00
126, 56719.43, 56725.80, 56809.46, 56784.00, 43188.04, 43202.32, 43245.41, 43233.48, 0.00, 0.00, 0.00
127, 56766.01, 56772.27, 56855.95, 56830.63, 43184.78, 43199.02, 43242.06, 43229.95, 0.00, 0.00, 0.00
128, 56797.41, 56803.67, 56887.49, 56862.03, 43183.37, 43197.52, 43240.57, 43228.65, -0.10, 0.14, 0.90
129, 56792.90, 56799.60, 56883.29, 56858.05, 43179.86, 43194.12, 43237.21, 43225.10, 0.00, 0.00, 0.00
130, 56726.91, 56733.57, 56817.48, 56791.78, 43185.13, 43199.33, 43242.31, 43230.15, 0.00, 0.00, 0.00
131, 56718.36, 56724.68, 56808.72, 56783.02, 43213.34, 43227.45, 43270.36, 43258.43, 0.00, 0.00, 0.00
132, 56742.20, 56748.80, 56832.50, 56806.80, 43200.82, 43214.77, 43257.84, 43246.04, 0.00, 0.00, 0.00
133, 56760.40, 56767.13, 56850.52, 56824.82, 43193.20, 43207.06, 43250.20, 43238.46, 0.00, 0.00, 0.00
134, 56766.75, 56773.34, 56856.84, 56831.57, 43185.76, 43199.86, 43242.89, 43231.09, 0.00, 0.00, 0.00
135, 56746.03, 56752.93, 56836.35, 56811.07, 43178.88, 43192.98, 43235.94, 43223.94, 0.00, 0.00, 0.00
136, 56744.08, 56750.81, 56834.16, 56808.68, 43186.81, 43200.73, 43243.98, 43231.94, 0.00, 0.00, 0.00
137, 56751.59, 56757.92, 56841.80, 56816.07, 43187.30, 43201.56, 43244.61, 43232.50, 0.00, 0.00, 0.00
138, 56760.55, 56767.19, 56851.01, 56825.26, 43172.75, 43186.90, 43229.97, 43217.97, -0.20, 0.18, 1.11
139, 56754.95, 56761.36, 56845.04, 56819.74, 43153.15, 43167.16, 43210.37, 43198.32, 0.00, 0.00, 0.00
140, 56740.26, 56746.70, 56830.71, 56805.21, 43151.18, 43165.26, 43208.63, 43196.60, 0.00, 0.00, 0.00
141, 56747.57, 56754.18, 56837.87, 56812.41, 43140.68, 43154.76, 43197.83, 43185.94, 0.00, 0.00, 0.00
142, 56760.11, 56766.75, 56850.48, 56824.91, 43150.06, 43164.04, 43206.61, 43194.99, 0.00, 0.00, 0.00
143, 56762.32, 56768.87, 56852.33, 56827.09, 43148.66, 43162.71, 43205.45, 43193.71, 0.00, 0.00, 0.00
144, 56764.45, 56770.95, 56854.14, 56828.82, 43143.07, 43157.11, 43199.91, 43188.22, 0.00, 0.00, 0.00
145, 56768.42, 56774.97, 56858.10, 56833.02, 43140.43, 43154.64, 43197.45, 43185.76, 0.00, 0.00, 0.00
146, 56772.11, 56778.37, 56861.74, 56836.53, 43141.68, 43155.81, 43199.02, 43187.35, 0.00, 0.00, 0.00
147, 56777.52, 56784.07, 56867.48, 56842.12, 43145.14, 43159.43, 43202.19, 43190.23, 0.00, 0.00, 0.00
148, 56792.16, 56799.07, 56882.59, 56857.16, 43148.05, 43162.36, 43205.16, 43193.16, 0.00, 0.00, 0.00
149, 56799.27, 56805.97, 56889.59, 56863.75, 43154.55, 43168.95, 43211.93, 43200.02, -0.24, 0.19, 1.06
150, 56800.03, 56806.35, 56889.97, 56864.31, 43169.33, 43183.61, 43226.42, 43214.23, 0.00, 0.00, 0.00
151, 56804.41, 56810.93, 56894.26, 56868.94, 43156.50, 43170.67, 43213.18, 43201.36, 0.00, 0.00, 0.00
152, 56823.23, 56829.66, 56913.11, 56887.73, 43165.53, 43179.61, 43222.80, 43210.79, 0.00, 0.00, 0.00
153, 56845.67, 56852.29, 56935.73, 56910.54, 43161.29, 43175.52, 43218.75, 43206.57, 0.00, 0.00, 0.00
154, 56847.26, 56853.58, 56937.02, 56912.25, 43169.33, 43183.37, 43226.57, 43214.46, 0.00, 0.00, 0.00
155, 56850.81, 56857.11, 56940.89, 56915.50, 43170.34, 43184.42, 43227.51, 43215.33, 0.00, 0.00, 0.00
156, 56766.03, 56772.56, 56856.13, 56830.70, 43186.16, 43200.55, 43243.56, 43231.34, 0.00, 0.00, 0.00
157, 56806.20, 56812.30, 56896.50, 56870.95, 43197.16, 43211.38, 43254.63, 43242.49, 0.00, 0.00, 0.00
158, 56853.40, 56859.91, 56943.79, 56918.45, 43193.27, 43207.42, 43250.29, 43238.71, 0.00, 0.00, 0.00
159, 56859.06, 56865.94, 56949.34, 56924.10, 43187.66, 43201.85, 43244.99, 43233.01, -0.24, 0.22, 1.05
160, 56809.59, 56816.23, 56899.52, 56874.48, 43181.33, 43195.39, 43238.80, 43226.62, 0.00, 0.00, 0.00
161, 56802.38, 56808.92, 56892.45, 56867.35, 43191.37, 43205.54, 43248.70, 43236.72, 0.00, 0.00, 0.00
162, 56828.21, 56834.79, 56918.18, 56892.86, 43192.33, 43206.68, 43249.64, 43238.22, 0.00, 0.00, 0.00
163, 56817.64, 56824.01, 56907.88, 56882.15, 43177.40, 43191.97, 43235.04, 43223.15, 0.00, 0.00, 0.00
164, 56812.50, 56819.18, 56903.09, 56877.45, 43184.26, 43198.95, 43241.95, 43229.82, 0.00, 0.00, 0.00
165, 56820.05, 56826.98, 56910.36, 56884.83, 43193.58, 43208.07, 43251.05, 43238.87, 0.00, 0.00, 0.00
166, 56837.20, 56844.15, 56927.37, 56901.91, 43199.37, 43213.39, 43256.77, 43244.84, 0.00, 0.00, 0.00
167, 56841.33, 56847.66, 56931.48, 56905.98, 43201.23, 43215.35, 43258.43, 43246.60, 0.00, 0.00, 0.00
168, 56834.18, 56840.95, 56924.50, 56898.93, 43197.27, 43211.44, 43254.45, 43242.60, 0.00, 0.00, 0.00
169, 56840.11, 56846.59, 56930.52, 56904.72, 43177.71, 43192.04, 43235.16, 43223.09, -0.19, 0.17, 1.02
170, 56857.61, 56864.27, 56947.91, 56922.31, 43163.25, 43177.40, 43220.18, 43208.43, 0.00, 0.00, 0.00
171, 56882.44, 56888.79, 56972.61, 56946.92, 43164.37, 43178.45, 43221.41, 43209.41, 0.00, 0.00, 0.00
172, 56887.67, 56894.02, 56978.08, 56952.20, 43172.46, 43186.54, 43229.90, 43217.72, 0.00, 0.00, 0.00
173, 56884.07, 56890.39, 56974.59, 56948.76, 43156.14, 43170.56, 43213.72, 43201.70, 0.00, 0.00, 0.00
174, 56884.81, 56891.36, 56975.46, 56949.79, 43164.70, 43178.90, 43222.21, 43210.14, 0.00, 0.00, 0.00
175, 56887.63, 56894.06, 56978.04, 56952.46, 43174.56, 43188.75, 43231.82, 43219.84, 0.00, 0.00, 0.00
176, 56888.05, 56894.55, 56978.42, 56952.73, 43163.05, 43176.93, 43219.98, 43208.07, 0.00, 0.00, 0.00
177, 56888.61, 56895.16, 56978.71, 56953.05, 43172.37, 43186.50, 43229.39, 43217.63, 0.00, 0.00, 0.00
178, 56889.88, 56896.45, 56979.96, 56954.28, 43147.71, 43161.62, 43204.69, 43192.46, 0.00, 0.00, 0.00
179, 56890.26, 56896.99, 56980.52, 56955.19, 43155.79, 43169.75, 43212.71, 43201.09, -0.15, 0.13, 1.01
180, 56885.55, 56892.59, 56976.09, 56950.86, 43155.81, 43170.00, 43212.71, 43200.96, 0.00, 0.00, 0.00
181, 56883.20, 56890.15, 56973.68, 56948.40, 43160.30, 43174.61, 43217.50, 43205.34, 0.00, 0.00, 0.00
182, 56902.13, 56908.46, 56992.57, 56967.00, 43147.00, 43161.13, 43204.09, 43192.29, 0.00, 0.00, 0.00
183, 56925.51, 56931.77, 57015.41, 56990.13, 43124.79, 43138.66, 43181.76, 43169.69, 0.00, 0.00, 0.00
184, 56927.30, 56933.69, 57017.20, 56992.10, 43123.84, 43137.82, 43180.64, 43168.41, 0.00, 0.00, 0.00
185, 56916.86, 56923.48, 57006.87, 56981.95, 43131.49, 43145.48, 43188.69, 43176.10, 0.00, 0.00, 0.00
186, 56841.47, 56848.13, 56931.95, 56906.40, 43153.26, 43166.94, 43210.37, 43198.05, 0.00, 0.00, 0.00
187, 56861.52, 56868.02, 56951.97, 56926.43, 43129.12, 43143.36, 43186.59, 43174.43, 0.00, 0.00, 0.00
188, 56907.79, 56914.00, 56998.09, 56972.67, 43131.36, 43145.19, 43188.62, 43176.39, 0.00, 0.00, 0.00
189, 56919.41, 56926.07, 57009.42, 56984.16, 43147.54, 43161.42, 43204.60, 43192.64, -0.06, 0.07, 0.94
190, 56892.65, 56899.22, 56982.93, 56957.72, 43156.28, 43170.36, 43213.43, 43201.54, 0.00, 0.00, 0.00
191, 56874.64, 56881.23, 56965.07, 56939.57, 43155.43, 43169.62, 43212.52, 43200.60, 0.00, 0.00, 0.00
192, 56888.83, 56895.38, 56979.22, 56953.50, 43154.82, 43168.68, 43211.64, 43199.30, 0.00, 0.00, 0.00
193, 56877.05, 56883.60, 56967.71, 56941.83, 43143.13, 43157.26, 43200.20, 43188.04, 0.00, 0.00, 0.00
194, 56876.38, 56883.06, 56967.04, 56941.58, 43121.36, 43135.47, 43178.61, 43166.25, 0.00, 0.00, 0.00
195, 56894.46, 56901.10, 56984.59, 56959.20, 43111.57, 43125.66, 43168.68, 43156.64, 0.00, 0.00, 0.00
196, 56897.50, 56903.92, 56987.71, 56961.86, 43119.89, 43134.15, 43177.22, 43164.88, 0.00, 0.00, 0.00
197, 56887.11, 56893.35, 56977.12, 56951.57, 43126.97, 43141.28, 43184.20, 43171.90, 0.00, 0.00, 0.00
198, 56886.73, 56893.48, 56977.12, 56951.48, 43108.38, 43122.30, 43165.35, 43153.24, 0.00, 0.00, 0.00
199, 56891.85, 56898.51, 56982.46, 56956.78, 43109.54, 43123.60, 43166.49, 43154.54, 0.00, 0.00, 0.00
200, 56903.40, 56910.00, 56993.93, 56968.27, 43097.31, 43111.24, 43154.20, 43142.20, -0.10, 0.08, 0.98
201, 56904.48, 56910.80, 56994.67, 56969.07, 43080.68, 43094.92, 43137.55, 43125.59, 0.00, 0.00, 0.00
202, 56904.50, 56911.16, 56994.80, 56969.36, 43077.93, 43092.08, 43134.80, 43123.02, 0.00, 0.00, 0.00
203, 56901.88, 56908.61, 56992.45, 56966.84, 43086.25, 43100.67, 43143.29, 43131.73, 0.00, 0.00, 0.00
204, 56893.26, 56899.63, 56983.51, 56958.05, 43077.18, 43091.28, 43134.17, 43122.10, 0.00, 0.00, 0.00
205, 56895.31, 56901.75, 56985.50, 56960.38, 43055.09, 43069.20, 43112.13, 43099.91, 0.00, 0.00, 0.00
206, 56907.94, 56914.11, 56997.82, 56972.76, 43063.16, 43077.35, 43120.29, 43108.20, 0.00, 0.00, 0.00
207, 56915.59, 56922.00, 57005.69, 56980.56, 43060.03, 43074.07, 43117.16, 43105.07, 0.00, 0.00, 0.00
208, 56925.15, 56931.43, 57015.63, 56990.09, 43019.29, 43033.36, 43076.62, 43064.28, 0.00, 0.00, 0.00
209, 56935.01, 56941.47, 57025.42, 56999.92, 43024.45, 43038.35, 43081.82, 43069.29, 0.00, 0.00, 0.00
210, 56928.84, 56935.30, 57019.10, 56993.50, 43035.53, 43049.59, 43092.69, 43080.59, -0.13, 0.08, 1.00
211, 56931.30, 56937.80, 57021.94, 56996.25, 43030.28, 43044.43, 43087.59, 43075.81, 0.00, 0.00, 0.00
212, 56953.09, 56959.46, 57043.50, 57018.05, 43070.54, 43084.57, 43127.98, 43116.04, 0.00, 0.00, 0.00
213, 56975.67, 56981.95, 57065.99, 57040.33, 43088.75, 43102.88, 43146.15, 43134.26, 0.00, 0.00, 0.00
214, 56960.71, 56966.97, 57050.84, 57025.24, 43062.67, 43076.64, 43119.78, 43107.80, 0.00, 0.00, 0.00
215, 56959.29, 56966.28, 57050.12, 57024.57, 43037.75, 43051.67, 43094.63, 43082.61, 0.00, 0.00, 0.00
216, 56897.68, 56904.37, 56988.52, 56962.86, 43036.16, 43050.20, 43093.22, 43081.51, 0.00, 0.00, 0.00
217, 56913.35, 56919.70, 57003.36, 56978.26, 43054.29, 43068.21, 43111.30, 43099.37, 0.00, 0.00, 0.00
218, 56951.10, 56957.61, 57041.40, 57016.08, 43053.04, 43066.91, 43110.05, 43097.92, 0.00, 0.00, 0.00
219, 56951.10, 56957.52, 57041.56, 57016.06, 43055.79, 43069.98, 43112.69, 43100.62, 0.00, 0.00, 0.00
220, 56919.41, 56925.91, 57009.82, 56984.30, 43050.51, 43064.68, 43107.50, 43095.50, -0.11, 0.10, 0.99
221, 56878.55, 56885.48, 56969.21, 56943.59, 43062.85, 43076.86, 43119.75, 43108.02, 0.00, 0.00, 0.00
222, 56908.16, 56915.05, 56998.98, 56973.07, 43071.90, 43086.05, 43128.79, 43116.76, 0.00, 0.00, 0.00
223, 56908.41, 56915.32, 56999.14, 56973.75, 43069.08, 43083.25, 43125.99, 43114.14, 0.00, 0.00, 0.00
224, 56905.41, 56912.12, 56995.96, 56970.28, 43077.20, 43091.19, 43134.35, 43122.57, 0.00, 0.00, 0.00
225, 56900.79, 56907.81, 56991.31, 56965.68, 43112.36, 43126.32, 43169.13, 43157.48, 0.00, 0.00, 0.00
226, 56895.16, 56901.97, 56985.77, 56960.22, 43083.50, 43097.65, 43140.39, 43128.56, 0.00, 0.00, 0.00
227, 56895.83, 56902.20, 56986.20, 56960.96, 43061.93, 43075.79, 43118.75, 43107.06, 0.00, 0.00, 0.00
228, 56896.45, 56903.09, 56986.84, 56961.23, 43054.44, 43068.61, 43111.33, 43099.73, 0.00, 0.00, 0.00
229, 56895.25, 56901.62, 56985.68, 56959.71, 43059.88, 43074.16, 43117.03, 43105.07, 0.00, 0.00, 0.00
230, 56889.30, 56895.87, 56979.69, 56954.03, 43045.52, 43059.61, 43102.79, 43090.68, -0.11, 0.06, 0.98
231, 56882.01, 56888.45, 56972.29, 56946.88, 43071.52, 43085.58, 43128.34, 43116.65, 0.00, 0.00, 0.00
232, 56892.96, 56899.43, 56983.27, 56957.90, 43075.25, 43089.27, 43131.85, 43120.18, 0.00, 0.00, 0.00
233, 56900.81, 56907.27, 56991.09, 56965.68, 43045.34, 43059.50, 43102.50, 43090.41, 0.00, 0.00, 0.00
234, 56891.42, 56898.11, 56981.99, 56956.29, 43033.07, 43047.22, 43090.25, 43078.14, 0.00, 0.00, 0.00
235, 56892.63, 56899.00, 56982.93, 56957.34, 43020.60, 43034.68, 43077.82, 43065.57, 0.00, 0.00, 0.00
236, 56888.00, 56894.48, 56978.26, 56952.82, 43031.80, 43045.91, 43089.25, 43076.79, 0.00, 0.00, 0.00
237, 56899.25, 56906.06, 56989.93, 56964.47, 43055.49, 43069.53, 43112.58, 43100.67, 0.00, 0.00, 0.00
238, 56920.01, 56926.74, 57010.74, 56985.17, 43043.29, 43057.66, 43100.49, 43088.75, 0.00, 0.00, 0.00
239, 56905.57, 56912.03, 56996.05, 56970.53, 43032.61, 43046.48, 43089.67, 43077.58, 0.00, 0.00, 0.00
240, 56891.65, 56898.24, 56982.17, 56956.45, 43021.77, 43035.60, 43078.80, 43066.73, 0.00, 0.00, 0.00
241, 56899.40, 56905.93, 56989.88, 56964.02, 43030.95, 43045.14, 43087.97, 43075.97, -0.10, 0.09, 0.97
242, 56914.65, 56921.31, 57005.39, 56979.63, 43051.80, 43066.13, 43109.27, 43097.36, 0.00, 0.00, 0.00
243, 56954.16, 56960.60, 57044.64, 57019.28, 43044.43, 43058.67, 43101.45, 43089.54, 0.00, 0.00, 0.00
244, 56927.86, 56934.12, 57018.27, 56992.83, 43042.66, 43056.48, 43099.39, 43087.37, 0.00, 0.00, 0.00
245, 56906.94, 56913.71, 56997.71, 56971.98, 43040.32, 43054.33, 43097.40, 43085.31, 0.00, 0.00, 0.00
246, 56841.02, 56847.64, 56931.97, 56906.15, 43043.56, 43057.48, 43100.44, 43088.51, 0.00, 0.00, 0.00
247, 56818.89, 56825.64, 56909.30, 56883.73, 43042.93, 43056.75, 43099.73, 43087.75, 0.00, 0.00, 0.00
248, 56865.70, 56872.54, 56956.24, 56930.67, 43058.82, 43072.95, 43115.93, 43103.93, 0.00, 0.00, 0.00
249, 56881.01, 56887.56, 56971.42, 56945.89, 43034.46, 43048.86, 43091.61, 43079.68, 0.00, 0.00, 0.00
250, 56860.38, 56867.08, 56950.86, 56925.11, 43048.05, 43062.07, 43105.29, 43093.18, 0.00, 0.00, 0.00
251, 56825.15, 56831.81, 56915.79, 56889.97, 43052.92, 43067.30, 43110.12, 43098.36, -0.06, 0.03, 0.99
252, 56803.40, 56810.22, 56894.15, 56868.36, 43051.05, 43065.17, 43108.38, 43096.04, 0.00, 0.00, 0.00
253, 56796.52, 56803.11, 56886.95, 56861.41, 43051.20, 43065.51, 43108.58, 43096.24, 0.00, 0.00, 0.00
254, 56816.16, 56822.67, 56906.42, 56881.07, 43061.91, 43076.14, 43119.15, 43106.90, 0.00, 0.00, 0.00
255, 56833.46, 56840.06, 56923.50, 56898.15, 43075.14, 43088.98, 43132.16, 43120.11, 0.00, 0.00, 0.00
0, 56817.44, 56824.39, 56907.90, 56882.26, 43083.52, 43097.36, 43140.56, 43128.67, 0.00, 0.00, 0.00
1, 56821.22, 56828.13, 56912.14, 56886.46, 43096.91, 43111.02, 43154.22, 43142.42, 0.00, 0.00, 0.00
2, 56866.10, 56872.63, 56956.29, 56931.07, 43115.95, 43130.24, 43173.53, 43161.35, 0.00, 0.00, 0.00
3, 56852.80, 56859.24, 56942.92, 56917.91, 43128.72, 43142.93, 43185.78, 43174.05, 0.00, 0.00, 0.00
4, 56863.08, 56869.27, 56953.00, 56928.19, 43135.87, 43149.66, 43193.00, 43181.36, 0.00, 0.00, 0.00
5, 56922.65, 56929.00, 57012.66, 56987.56, 43152.59, 43166.61, 43209.74, 43198.14, -0.08, 0.02, 0.93
6, 56922.00, 56928.75, 57012.35, 56987.11, 43145.19, 43159.56, 43202.61, 43190.57, 0.00, 0.00, 0.00
7, 56837.38, 56844.35, 56928.08, 56902.42, 43142.87, 43157.33, 43200.18, 43188.00, 0.00, 0.00, 0.00
8, 56787.13, 56794.02, 56877.99, 56852.31, 43146.62, 43160.88, 43203.60, 43191.55, 0.00, 0.00, 0.00
9, 56787.20, 56793.93, 56877.45, 56851.97, 43158.73, 43172.91, 43215.82, 43203.48, 0.00, 0.00, 0.00
10, 56834.14, 56840.68, 56924.55, 56898.89, 43170.52, 43184.44, 43227.71, 43215.49, 0.00, 0.00, 0.00
11, 56849.34, 56856.13, 56939.91, 56914.20, 43157.35, 43171.39, 43214.62, 43202.64, 0.00, 0.00, 0.00
12, 56815.18, 56821.84, 56905.82, 56880.05, 43142.29, 43156.14, 43199.62, 43187.68, 0.00, 0.00, 0.00
13, 56795.60, 56802.48, 56885.99, 56860.58, 43117.03, 43131.11, 43174.27, 43162.45, 0.00, 0.00, 0.00
14, 56845.02, 56851.62, 56935.32, 56909.98, 43070.02, 43084.28, 43127.09, 43115.39, 0.00, 0.00, 0.00
15, 56882.44, 56889.03, 56972.89, 56947.39, 43043.22, 43057.35, 43100.55, 43088.69, -0.10, 0.03, 0.91
16, 56874.88, 56881.39, 56965.25, 56939.97, 43025.90, 43040.14, 43082.88, 43070.71, 0.00, 0.00, 0.00
17, 56878.04, 56884.50, 56968.25, 56942.95, 43039.69, 43053.46, 43096.53, 43084.89, 0.00, 0.00, 0.00
18, 56899.83, 56906.11, 56989.84, 56964.34, 43058.91, 43072.66, 43115.98, 43103.97, 0.00, 0.00, 0.00
19, 56893.43, 56899.67, 56983.27, 56957.70, 43070.49, 43084.84, 43128.18, 43115.87, 0.00, 0.00, 0.00
20, 56830.67, 56836.93, 56920.86, 56895.38, 43100.98, 43115.04, 43158.40, 43146.53, 0.00, 0.00, 0.00
21, 56816.48, 56823.07, 56906.89, 56881.52, 43110.10, 43123.62, 43167.25, 43155.70, 0.00, 0.00, 0.00
22, 56879.09, 56885.61, 56969.32, 56944.09, 43118.50, 43132.70, 43176.15, 43164.26, 0.00, 0.00, 0.00
23, 56890.93, 56897.46, 56981.05, 56955.75, 43123.00, 43137.19, 43180.55, 43168.46, 0.00, 0.00, 0.00
24, 56898.00, 56904.79, 56988.32, 56962.57, 43134.80, 43148.50, 43192.11, 43179.93, 0.00, 0.00, 0.00
25, 56861.52, 56868.02, 56951.68, 56925.98, 43140.79, 43154.60, 43197.94, 43186.09, -0.08, -0.02, 0.95
26, 56866.73, 56873.21, 56956.96, 56931.52, 43146.82, 43160.55, 43204.09, 43192.09, 0.00, 0.00, 0.00
27, 56893.12, 56899.47, 56983.60, 56957.74, 43151.20, 43165.20, 43208.29, 43196.73, 0.00, 0.00, 0.00
28, 56904.50, 56911.00, 56994.96, 56969.21, 43109.88, 43124.14, 43166.71, 43155.29, 0.00, 0.00, 0.00
29, 56909.20, 56915.77, 56999.61, 56973.79, 43081.71, 43096.02, 43138.73, 43127.02, 0.00, 0.00, 0.00
30, 56921.87, 56928.39, 57012.28, 56986.71, 43055.09, 43069.15, 43112.33, 43100.33, 0.00, 0.00, 0.00
31, 56929.36, 56936.08, 57019.84, 56994.22, 43046.87, 43061.17, 43104.27, 43092.24, 0.00, 0.00, 0.00
32, 56920.19, 56926.83, 57010.49, 56984.61, 43046.57, 43060.70, 43103.73, 43091.99, 0.00, 0.00, 0.00
33, 56900.48, 56906.91, 56990.62, 56965.18, 43053.08, 43067.07, 43110.50, 43098.25, 0.00, 0.00, 0.00
34, 56900.10, 56906.31, 56990.33, 56964.69, 43010.72, 43024.45, 43067.70, 43055.49, 0.00, 0.00, 0.00
35, 56908.72, 56915.00, 56998.94, 56973.39, 43004.93, 43018.90, 43061.91, 43050.09, 0.00, 0.00, 0.00
36, 56907.07, 56913.55, 56997.30, 56972.07, 43003.66, 43017.68, 43061.13, 43048.90, -0.08, 0.00, 0.97
37, 56892.30, 56898.75, 56982.44, 56957.03, 42979.86, 42993.87, 43037.14, 43024.94, 0.00, 0.00, 0.00
38, 56891.34, 56898.09, 56981.61, 56956.13, 42952.07, 42966.06, 43009.00, 42997.18, 0.00, 0.00, 0.00
39, 56916.84, 56923.59, 57007.05, 56981.99, 42932.98, 42946.66, 42989.42, 42977.60, 0.00, 0.00, 0.00
40, 56922.65, 56929.20, 57013.00, 56987.74, 42917.00, 42930.61, 42973.42, 42961.64, 0.00, 0.00, 0.00
41, 56914.87, 56921.98, 57005.29, 56980.36, 42896.39, 42910.09, 42953.37, 42941.34, 0.00, 0.00, 0.00
42, 56912.88, 56919.86, 57003.18, 56978.13, 42890.80, 42904.89, 42947.80, 42935.46, 0.00, 0.00, 0.00
43, 56921.71, 56928.06, 57011.92, 56986.57, 42900.35, 42914.18, 42957.17, 42944.85, 0.00, 0.00, 0.00
44, 56934.77, 56941.16, 57025.18, 56999.85, 42887.92, 42901.73, 42944.79, 42932.69, 0.00, 0.00, 0.00
45, 56940.31, 56947.01, 57030.99, 57005.69, 42869.10, 42883.25, 42925.70, 42913.74, 0.00, 0.00, 0.00
46, 56938.96, 56945.38, 57029.11, 57003.68, 42869.59, 42883.23, 42926.10, 42914.07, -0.11, -0.04, 0.97
47, 56964.45, 56971.42, 57054.84, 57029.31, 42885.98, 42899.61, 42942.59, 42930.26, 0.00, 0.00, 0.00
48, 56979.40, 56986.08, 57069.77, 57044.36, 42905.11, 42919.13, 42961.73, 42949.86, 0.00, 0.00, 0.00
49, 56978.15, 56984.79, 57068.63, 57043.04, 42904.42, 42918.23, 42960.92, 42949.10, 0.00, 0.00, 0.00
50, 56924.79, 56931.41, 57015.07, 56989.59, 42904.84, 42918.59, 42961.68, 42949.50, 0.00, 0.00, 0.00
51, 56880.07, 56886.55, 56970.55, 56945.16, 42914.70, 42928.42, 42971.74, 42959.70, 0.00, 0.00, 0.00
52, 56964.96, 56971.46, 57055.55, 57029.82, 42902.18, 42916.13, 42959.36, 42947.64, 0.00, 0.00, 0.00
53, 56992.50, 56998.78, 57082.73, 57057.27, 42896.30, 42910.18, 42952.88, 42941.23, 0.00, 0.00, 0.00
54, 56973.63, 56980.00, 57063.91, 57038.52, 42894.96, 42908.78, 42951.45, 42939.98, 0.00, 0.00, 0.00
55, 56909.08, 56915.95, 56999.43, 56974.13, 42912.96, 42926.79, 42969.68, 42957.93, 0.00, 0.00, 0.00
56, 56914.85, 56921.44, 57005.13, 56979.60, 42915.66, 42929.79, 42972.52, 42960.63, -0.07, -0.06, 0.96
57, 56935.19, 56941.87, 57025.73, 56999.92, 42893.22, 42907.17, 42949.95, 42938.28, 0.00, 0.00, 0.00
58, 56939.82, 56946.86, 57030.61, 57004.99, 42886.25, 42900.80, 42943.06, 42931.20, 0.00, 0.00, 0.00
59, 56938.00, 56944.82, 57028.46, 57003.41, 42876.75, 42891.23, 42933.61, 42921.63, 0.00, 0.00, 0.00
60, 56938.70, 56945.40, 57029.51, 57003.83, 42858.44, 42872.66, 42915.30, 42903.30, 0.00, 0.00, 0.00
61, 56935.25, 56941.76, 57026.03, 57000.03, 42834.19, 42848.54, 42890.94, 42879.09, 0.00, 0.00, 0.00
62, 56930.29, 56936.84, 57021.04, 56995.34, 42830.99, 42845.30, 42887.72, 42875.70, 0.00, 0.00, 0.00
63, 56925.33, 56931.99, 57015.97, 56990.35, 42809.82, 42824.18, 42866.75, 42854.57, 0.00, 0.00, 0.00
64, 56933.82, 56940.24, 57024.35, 56998.80, 42809.69, 42823.55, 42866.42, 42854.46, 0.00, 0.00, 0.00
65, 56942.16, 56948.51, 57032.60, 57006.96, 42820.69, 42834.28, 42877.13, 42865.28, 0.00, 0.00, 0.00
66, 56946.12, 56952.69, 57036.75, 57010.78, 42839.26, 42852.96, 42895.63, 42883.90, -0.07, -0.07, 0.95
67, 56941.76, 56948.24, 57032.17, 57006.47, 42863.56, 42877.21, 42920.11, 42908.13, 0.00, 0.00, 0.00
68, 56956.80, 56963.17, 57046.90, 57021.54, 42871.63, 42885.42, 42928.29, 42916.31, 0.00, 0.00, 0.00
69, 56951.86, 56958.55, 57042.19, 57016.97, 42873.28, 42886.87, 42929.74, 42917.88, 0.00, 0.00, 0.00
70, 56942.50, 56949.36, 57032.87, 57007.63, 42889.51, 42903.48, 42946.15, 42934.39, 0.00, 0.00, 0.00
71, 56933.54, 56940.29, 57023.68, 56998.80, 42883.61, 42897.58, 42940.43, 42928.51, 0.00, 0.00, 0.00
72, 56953.90, 56960.54, 57044.11, 57018.80, 42878.82, 42892.84, 42935.78, 42923.66, 0.00, 0.00, 0.00
73, 56957.90, 56964.45, 57048.09, 57022.52, 42889.78, 42903.59, 42946.89, 42934.77, 0.00, 0.00, 0.00
74, 56960.47, 56967.42, 57050.90, 57025.63, 42912.78, 42926.81, 42969.71, 42958.06, 0.00, 0.00, 0.00
75, 56956.94, 56963.91, 57047.57, 57022.05, 42915.66, 42929.56, 42972.59, 42960.77, 0.00, 0.00, 0.00
76, 56964.16, 56970.59, 57054.28, 57028.64, 42909.00, 42923.42, 42966.46, 42954.53, -0.06, -0.08, 0.95
77, 56986.69, 56993.30, 57076.90, 57051.33, 42898.41, 42912.55, 42955.45, 42943.71, 0.00, 0.00, 0.00
78, 56990.71, 56997.30, 57081.17, 57055.93, 42928.91, 42942.73, 42985.82, 42974.09, 0.00, 0.00, 0.00
79, 56978.21, 56984.45, 57068.70, 57043.53, 42966.87, 42980.93, 43024.18, 43012.02, 0.00, 0.00, 0.00
80, 56942.48, 56948.42, 57032.62, 57006.94, 42989.29, 43003.19, 43046.31, 43034.13, 0.00, 0.00, 0.00
81, 56885.32, 56891.82, 56975.60, 56950.07, 42996.26, 43010.32, 43053.28, 43041.39, 0.00, 0.00, 0.00
82, 56969.34, 56975.94, 57059.75, 57034.48, 42982.54, 42996.77, 43039.54, 43027.73, 0.00, 0.00, 0.00
83, 56944.73, 56951.48, 57035.04, 57009.87, 42983.70, 42998.07, 43040.88, 43028.87, 0.00, 0.00, 0.00
84, 56937.69, 56943.95, 57028.08, 57002.58, 42994.88, 43009.16, 43051.83, 43040.14, 0.00, 0.00, 0.00
85, 56895.89, 56902.49, 56986.60, 56961.21, 43033.03, 43047.36, 43089.82, 43078.49, 0.00, 0.00, 0.00
86, 56906.62, 56913.20, 56996.93, 56971.55, 43045.17, 43059.27, 43101.94, 43090.56, 0.00, 0.00, 0.00
87, 56945.94, 56952.49, 57036.11, 57010.92, 43053.88, 43067.92, 43110.41, 43098.92, -0.04, -0.10, 0.96
88, 56937.00, 56943.70, 57027.41, 57002.04, 43046.57, 43060.48, 43103.57, 43091.46, 0.00, 0.00, 0.00
89, 56931.19, 56937.45, 57021.20, 56995.89, 43055.98, 43070.02, 43112.91, 43101.00, 0.00, 0.00, 0.00
90, 56941.67, 56948.02, 57031.82, 57006.49, 43061.02, 43074.94, 43118.19, 43106.39, 0.00, 0.00, 0.00
91, 56928.30, 56935.17, 57018.76, 56993.55, 43055.54, 43069.71, 43112.85, 43100.98, 0.00, 0.00, 0.00
92, 56923.39, 56930.16, 57013.96, 56988.54, 43058.27, 43072.77, 43115.78, 43103.62, 0.00, 0.00, 0.00
93, 56925.04, 56931.59, 57015.79, 56990.29, 43059.43, 43073.69, 43116.83, 43104.76, 0.00, 0.00, 0.00
94, 56932.77, 56939.66, 57023.52, 56998.24, 43049.86, 43064.14, 43107.13, 43095.21, 0.00, 0.00, 0.00
95, 56929.51, 56936.44, 57020.46, 56994.80, 43058.46, 43072.84, 43115.75, 43103.57, 0.00, 0.00, 0.00
96, 56925.58, 56932.33, 57016.23, 56990.87, 43055.85, 43070.04, 43112.78, 43101.07, 0.00, 0.00, 0.00
97, 56932.68, 56939.41, 57023.28, 56997.97, 43043.40, 43057.37, 43100.40, 43088.42, -0.08, -0.11, 0.98
98, 56955.13, 56962.10, 57045.74, 57020.28, 43046.39, 43060.70, 43103.68, 43091.50, 0.00, 0.00, 0.00
99, 56968.14, 56974.64, 57058.26, 57033.02, 43036.45, 43050.64, 43093.38, 43081.40, 0.00, 0.00, 0.00
100, 56965.05, 56971.55, 57055.39, 57029.94, 43011.77, 43025.72, 43068.55, 43056.68, 0.00, 0.00, 0.00
101, 56983.45, 56990.04, 57073.90, 57048.42, 43028.76, 43042.51, 43085.58, 43073.55, 0.00, 0.00, 0.00
102, 56996.48, 57002.89, 57086.87, 57061.39, 43046.20, 43060.21, 43103.17, 43091.23, 0.00, 0.00, 0.00
103, 56972.07, 56978.80, 57062.55, 57037.58, 43029.57, 43043.89, 43086.47, 43074.58, 0.00, 0.00, 0.00
104, 56963.82, 56970.77, 57054.79, 57029.20, 43023.24, 43037.14, 43079.99, 43067.96, 0.00, 0.00, 0.00
105, 56966.44, 56973.16, 57057.32, 57031.55, 43040.38, 43054.60, 43097.58, 43085.58, 0.00, 0.00, 0.00
106, 56982.37, 56988.81, 57072.81, 57047.51, 43059.20, 43073.44, 43116.27, 43104.51, 0.00, 0.00, 0.00
107, 57007.45, 57014.29, 57097.93, 57072.72, 43051.76, 43066.16, 43109.00, 43097.18, -0.09, -0.10, 0.99
108, 57023.12, 57030.34, 57113.87, 57088.66, 43049.64, 43063.83, 43106.54, 43094.79, 0.00, 0.00, 0.00
109, 56998.24, 57005.42, 57089.32, 57063.64, 43042.71, 43056.45, 43099.35, 43087.34, 0.00, 0.00, 0.00
110, 56963.78, 56970.71, 57054.93, 57029.00, 43031.73, 43045.46, 43088.26, 43076.26, 0.00, 0.00, 0.00
111, 56863.80, 56870.52, 56954.86, 56928.98, 43037.66, 43052.05, 43094.50, 43082.65, 0.00, 0.00, 0.00
112, 56893.23, 56900.07, 56984.38, 56958.61, 43011.64, 43025.90, 43068.66, 43056.84, 0.00, 0.00, 0.00
113, 56937.45, 56944.29, 57028.30, 57002.55, 43015.46, 43029.57, 43072.50, 43060.68, 0.00, 0.00, 0.00
114, 57001.55, 57008.50, 57092.41, 57066.48, 43028.02, 43042.15, 43085.15, 43073.06, 0.00, 0.00, 0.00
115, 56986.33, 56993.17, 57077.26, 57051.17, 43044.14, 43057.82, 43100.98, 43088.82, 0.00, 0.00, 0.00
116, 56975.73, 56982.82, 57066.48, 57041.07, 43046.57, 43060.41, 43103.28, 43091.32, 0.00, 0.00, 0.00
117, 56988.43, 56994.96, 57078.93, 57053.30, 43048.48, 43062.51, 43105.16, 43093.40, -0.09, -0.08, 1.00
118, 57006.63, 57013.11, 57097.60, 57071.82, 43042.39, 43056.57, 43099.39, 43087.55, 0.00, 0.00, 0.00
119, 57015.81, 57022.32, 57106.16, 57080.63, 43036.43, 43050.40, 43093.51, 43081.38, 0.00, 0.00, 0.00
120, 57015.18, 57021.46, 57105.13, 57079.89, 43037.41, 43051.63, 43094.77, 43082.41, 0.00, 0.00, 0.00
121, 57034.39, 57041.11, 57124.60, 57099.16, 43032.00, 43046.29, 43088.93, 43077.00, 0.00, 0.00, 0.00
122, 57047.04, 57053.90, 57137.47, 57111.92, 43039.24, 43053.39, 43096.24, 43084.39, 0.00, 0.00, 0.00
123, 57039.44, 57045.96, 57129.76, 57104.44, 43019.46, 43033.54, 43076.06, 43064.72, 0.00, 0.00, 0.00
124, 57057.65, 57064.18, 57147.89, 57122.47, 43018.86, 43032.79, 43075.70, 43063.94, 0.00, 0.00, 0.00
125, 57055.62, 57062.35, 57146.32, 57120.64, 43025.56, 43039.63, 43082.63, 43070.65, 0.00, 0.00, 0.00
126, 57055.02, 57061.52, 57145.83, 57120.24, 43019.33, 43033.10, 43075.92, 43064.34, 0.00, 0.00, 0.00
127, 57069.84, 57076.18, 57160.23, 57134.70, 43006.32, 43019.98, 43062.89, 43051.05, 0.00, 0.00, 0.00
128, 57055.69, 57062.06, 57145.88, 57120.17, 42990.81, 43004.82, 43047.63, 43035.67, -0.13, -0.08, 1.00
129, 57036.38, 57042.81, 57126.59, 57101.13, 42979.70, 42993.67, 43036.81, 43024.63, 0.00, 0.00, 0.00
130, 57043.13, 57050.08, 57133.88, 57108.32, 42998.09, 43012.00, 43055.34, 43043.20, 0.00, 0.00, 0.00
131, 57039.10, 57045.85, 57129.74, 57104.23, 42997.36, 43011.41, 43054.67, 43042.39, 0.00, 0.00, 0.00
132, 57035.73, 57042.43, 57126.48, 57100.61, 43008.22, 43022.01, 43065.30, 43052.95, 0.00, 0.00, 0.00
133, 57060.25, 57066.86, 57150.59, 57125.38, 43015.19, 43028.98, 43072.04, 43060.16, 0.00, 0.00, 0.00
134, 57062.82, 57069.30, 57153.09, 57127.68, 43015.33, 43029.14, 43071.90, 43060.28, 0.00, 0.00, 0.00
135, 57056.92, 57063.64, 57147.69, 57121.91, 43020.69, 43034.68, 43077.78, 43065.75, 0.00, 0.00, 0.00
136, 57068.05, 57074.84, 57158.37, 57132.91, 43003.77, 43018.08, 43061.04, 43048.99, 0.00, 0.00, 0.00
137, 57082.13, 57088.57, 57172.34, 57146.84, 42983.16, 42997.49, 43040.25, 43028.43, 0.00, 0.00, 0.00
138, 57077.86, 57084.25, 57168.18, 57142.52, 42991.48, 43005.54, 43048.45, 43036.58, -0.11, -0.07, 1.00
139, 57081.23, 57087.88, 57171.76, 57146.23, 42995.43, 43009.40, 43052.61, 43040.54, 0.00, 0.00, 0.00
140, 57061.12, 57067.67, 57151.62, 57126.39, 43000.53, 43014.66, 43057.59, 43045.57, 0.00, 0.00, 0.00
141, 56960.04, 56966.48, 57050.55, 57024.86, 42994.94, 43009.02, 43052.01, 43039.98, 0.00, 0.00, 0.00
142, 57031.39, 57037.94, 57121.98, 57096.25, 42970.69, 42984.82, 43027.71, 43015.55, 0.00, 0.00, 0.00
143, 57064.63, 57071.38, 57155.29, 57129.83, 42965.17, 42979.14, 43022.05, 43010.10, 0.00, 0.00, 0.00
144, 57067.67, 57074.26, 57158.13, 57132.71, 42968.39, 42982.18, 43025.18, 43013.05, 0.00, 0.00, 0.00
145, 57035.57, 57041.88, 57125.87, 57100.41, 42970.96, 42984.59, 43027.69, 43015.55, 0.00, 0.00, 0.00
146, 56991.65, 56998.06, 57082.02, 57056.49, 42962.93, 42976.91, 43019.64, 43007.97, 0.00, 0.00, 0.00
147, 57010.76, 57017.38, 57101.42, 57075.65, 42958.42, 42972.79, 43015.33, 43003.44, 0.00, 0.00, 0.00
148, 57033.83, 57040.71, 57124.62, 57098.94, 42933.59, 42947.89, 42990.50, 42978.83, -0.09, -0.07, 0.99
149, 57038.21, 57044.60, 57128.55, 57103.09, 42926.25, 42940.29, 42982.94, 42971.38, 0.00, 0.00, 0.00
150, 57021.91, 57027.88, 57111.88, 57086.51, 42920.58, 42934.44, 42977.44, 42965.59, 0.00, 0.00, 0.00
151, 57024.86, 57031.17, 57115.03, 57089.39, 42906.95, 42920.89, 42963.49, 42951.85, 0.00, 0.00, 0.00
152, 57037.36, 57044.06, 57127.82, 57102.13, 42911.77, 42925.81, 42968.39, 42956.70, 0.00, 0.00, 0.00
153, 57029.22, 57035.97, 57119.81, 57094.27, 42917.38, 42931.60, 42974.31, 42962.36, 0.00, 0.00, 0.00
154, 57024.15, 57031.17, 57115.05, 57089.39, 42902.47, 42916.55, 42959.45, 42947.45, 0.00, 0.00, 0.00
155, 57025.71, 57032.48, 57116.53, 57090.80, 42897.15, 42911.26, 42954.35, 42942.04, 0.00, 0.00, 0.00
156, 57028.98, 57035.77, 57119.41, 57094.45, 42898.56, 42912.73, 42955.49, 42943.31, 0.00, 0.00, 0.00
157, 57032.17, 57038.90, 57122.81, 57097.44, 42904.04, 42918.16, 42960.99, 42948.92, 0.00, 0.00, 0.00
158, 57020.62, 57027.59, 57111.48, 57085.77, 42898.79, 42912.78, 42955.89, 42943.80, -0.11, -0.06, 1.00
159, 57013.09, 57019.81, 57103.88, 57077.99, 42891.79, 42905.69, 42948.96, 42936.61, 0.00, 0.00, 0.00
160, 57024.80, 57031.59, 57115.37, 57089.89, 42891.16, 42905.00, 42948.16, 42935.91, 0.00, 0.00, 0.00
161, 57033.67, 57040.80, 57124.42, 57099.16, 42882.85, 42896.48, 42939.55, 42927.60, 0.00, 0.00, 0.00
162, 57018.47, 57025.40, 57109.24, 57083.70, 42904.69, 42918.34, 42961.35, 42949.32, 0.00, 0.00, 0.00
163, 57013.42, 57019.97, 57103.63, 57078.33, 42911.79, 42925.56, 42968.32, 42956.59, 0.00, 0.00, 0.00
164, 57017.84, 57024.64, 57108.28, 57083.07, 42914.68, 42928.82, 42971.41, 42959.61, 0.00, 0.00, 0.00
165, 57015.83, 57022.50, 57106.45, 57080.90, 42915.17, 42929.50, 42972.08, 42959.80, 0.00, 0.00, 0.00
166, 57023.28, 57029.89, 57113.91, 57088.36, 42906.27, 42920.46, 42963.09, 42950.91, 0.00, 0.00, 0.00
167, 57047.82, 57054.41, 57138.75, 57112.97, 42907.95, 42922.07, 42964.79, 42952.92, 0.00, 0.00, 0.00
168, 57073.46, 57079.85, 57164.16, 57138.50, 42902.00, 42915.71, 42958.78, 42947.07, -0.14, -0.06, 0.98
169, 57068.38, 57074.93, 57159.09, 57133.61, 42910.72, 42924.33, 42967.56, 42955.56, 0.00, 0.00, 0.00
170, 57064.07, 57071.02, 57154.82, 57129.27, 42886.29, 42900.04, 42943.40, 42931.29, 0.00, 0.00, 0.00
171, 56961.96, 56968.65, 57052.58, 57026.83, 42906.25, 42919.80, 42962.78, 42950.93, 0.00, 0.00, 0.00
172, 57026.79, 57033.47, 57117.24, 57091.70, 42914.39, 42928.54, 42971.25, 42959.38, 0.00, 0.00, 0.00
173, 57059.62, 57066.19, 57150.04, 57124.38, 42931.69, 42945.88, 42988.73, 42976.73, 0.00, 0.00, 0.00
174, 57067.31, 57073.84, 57157.99, 57132.35, 42922.14, 42936.05, 42978.92, 42967.29, 0.00, 0.00, 0.00
175, 57027.77, 57034.61, 57118.45, 57092.84, 42921.23, 42935.40, 42978.20, 42966.18, 0.00, 0.00, 0.00
176, 56972.11, 56978.93, 57062.57, 57037.34, 42934.19, 42947.94, 42991.14, 42979.27, 0.00, 0.00, 0.00
177, 57015.01, 57021.38, 57105.38, 57079.74, 42919.46, 42933.03, 42976.05, 42964.25, 0.00, 0.00, 0.00
178, 57021.40, 57027.84, 57111.79, 57086.04, 42904.66, 42918.81, 42961.68, 42949.68, 0.00, 0.00, 0.00
179, 57007.81, 57014.61, 57098.40, 57072.90, 42910.23, 42924.33, 42967.07, 42955.49, -0.07, -0.08, 1.04
180, 57017.27, 57023.86, 57107.95, 57082.33, 42935.82, 42949.79, 42992.66, 42980.53, 0.00, 0.00, 0.00
181, 57044.93, 57051.71, 57135.39, 57109.98, 42947.63, 42961.73, 43004.80, 42992.51, 0.00, 0.00, 0.00
182, 57072.68, 57079.09, 57162.89, 57137.41, 42951.65, 42965.77, 43008.64, 42996.48, 0.00, 0.00, 0.00
183, 57080.05, 57086.42, 57170.44, 57144.85, 42965.59, 42979.77, 43022.21, 43010.50, 0.00, 0.00, 0.00
184, 57080.12, 57086.96, 57170.75, 57145.45, 42968.03, 42982.54, 43025.23, 43013.27, 0.00, 0.00, 0.00
185, 57087.88, 57094.45, 57178.53, 57153.14, 42967.00, 42981.33, 43024.13, 43011.97, 0.00, 0.00, 0.00
186, 57111.90, 57118.41, 57202.65, 57176.83, 42976.64, 42990.92, 43033.84, 43021.68, 0.00, 0.00, 0.00
187, 57130.88, 57137.45, 57221.52, 57195.83, 42977.11, 42991.25, 43034.06, 43021.99, 0.00, 0.00, 0.00
188, 57126.14, 57133.16, 57216.86, 57191.18, 42984.41, 42998.34, 43041.03, 43029.41, 0.00, 0.00, 0.00
189, 57129.43, 57136.22, 57219.75, 57194.56, 42991.30, 43005.38, 43048.36, 43036.45, -0.03, -0.10, 1.00
190, 57138.59, 57145.54, 57229.20, 57204.06, 42990.54, 43004.64, 43047.63, 43035.62, 0.00, 0.00, 0.00
191, 57130.92, 57137.58, 57221.58, 57196.37, 42991.54, 43005.61, 43048.54, 43036.54, 0.00, 0.00, 0.00
192, 57109.62, 57116.28, 57200.30, 57174.93, 43012.31, 43026.46, 43069.20, 43057.50, 0.00, 0.00, 0.00
193, 57111.23, 57117.89, 57201.73, 57176.16, 43023.08, 43037.12, 43079.66, 43068.08, 0.00, 0.00, 0.00
194, 57116.66, 57123.43, 57207.45, 57181.68, 43030.79, 43044.68, 43087.64, 43075.54, 0.00, 0.00, 0.00
195, 57121.96, 57128.40, 57212.53, 57187.11, 43012.67, 43027.06, 43069.84, 43057.71, 0.00, 0.00, 0.00
196, 57133.65, 57140.20, 57224.35, 57198.76, 43025.68, 43039.80, 43082.38, 43070.49, 0.00, 0.00, 0.00
197, 57155.60, 57162.21, 57246.48, 57220.82, 43014.25, 43028.25, 43071.14, 43059.23, 0.00, 0.00, 0.00
198, 57154.32, 57160.81, 57245.14, 57219.44, 42995.03, 43009.00, 43052.01, 43040.12, 0.00, 0.00, 0.00
199, 57155.80, 57162.10, 57246.28, 57220.55, 43003.37, 43017.81, 43060.63, 43049.01, -0.01, -0.07, 1.01
200, 57161.68, 57168.32, 57252.56, 57226.75, 43013.74, 43028.27, 43070.96, 43059.29, 0.00, 0.00, 0.00
201, 57053.96, 57060.98, 57144.76, 57119.19, 43013.34, 43027.53, 43070.27, 43058.49, 0.00, 0.00, 0.00
202, 57127.68, 57134.39, 57218.25, 57192.84, 42979.81, 42994.03, 43036.50, 43024.71, 0.00, 0.00, 0.00
203, 57167.98, 57174.69, 57258.55, 57233.16, 42967.67, 42982.02, 43024.71, 43013.05, 0.00, 0.00, 0.00
204, 57168.68, 57175.43, 57259.54, 57234.05, 42981.46, 42995.88, 43038.73, 43026.95, 0.00, 0.00, 0.00
205, 57151.71, 57158.06, 57242.57, 57217.20, 43001.20, 43015.06, 43058.04, 43046.20, 0.00, 0.00, 0.00
206, 57110.47, 57116.86, 57201.26, 57175.27, 43001.98, 43016.00, 43058.80, 43047.02, 0.00, 0.00, 0.00
207, 57135.19, 57141.74, 57225.89, 57200.21, 42981.96, 42996.11, 43038.91, 43027.31, 0.00, 0.00, 0.00
208, 57151.38, 57158.28, 57242.35, 57216.80, 42965.50, 42979.34, 43022.59, 43010.72, 0.00, 0.00, 0.00
209, 57139.48, 57146.23, 57230.28, 57204.55, 42961.59, 42975.47, 43018.68, 43006.39, -0.02, -0.05, 1.00
210, 57134.50, 57141.05, 57224.82, 57199.65, 42981.35, 42995.34, 43038.62, 43026.35, 0.00, 0.00, 0.00
211, 57153.99, 57160.67, 57244.80, 57219.19, 42978.63, 42992.71, 43035.85, 43023.75, 0.00, 0.00, 0.00
212, 57149.34, 57156.49, 57240.27, 57214.72, 42998.45, 43012.69, 43055.80, 43043.67, 0.00, 0.00, 0.00
213, 57124.78, 57131.66, 57215.50, 57190.25, 43005.22, 43019.08, 43062.22, 43050.49, 0.00, 0.00, 0.00
214, 57127.68, 57133.79, 57218.07, 57192.59, 42996.82, 43010.81, 43053.84, 43042.20, 0.00, 0.00, 0.00
215, 57130.97, 57137.45, 57221.63, 57195.83, 42999.52, 43013.34, 43056.57, 43044.68, 0.00, 0.00, 0.00
216, 57119.10, 57125.69, 57209.71, 57183.88, 43006.41, 43020.63, 43063.52, 43051.71, 0.00, 0.00, 0.00
217, 57120.42, 57127.17, 57211.07, 57185.57, 43014.66, 43028.80, 43071.72, 43059.88, 0.00, 0.00, 0.00
218, 57128.46, 57134.88, 57218.88, 57193.35, 43006.48, 43020.60, 43063.34, 43051.38, 0.00, 0.00, 0.00
219, 57130.68, 57137.07, 57221.27, 57195.45, 43022.43, 43036.16, 43079.14, 43067.34, -0.02, -0.04, 1.00
220, 57132.04, 57138.46, 57222.72, 57196.95, 43021.00, 43034.89, 43077.93, 43066.04, 0.00, 0.00, 0.00
221, 57114.58, 57120.95, 57205.11, 57179.34, 43011.77, 43025.70, 43068.93, 43056.79, 0.00, 0.00, 0.00
222, 57104.10, 57110.65, 57194.71, 57168.96, 43008.44, 43022.17, 43065.26, 43053.35, 0.00, 0.00, 0.00
223, 57117.18, 57123.48, 57207.57, 57181.97, 42997.89, 43011.75, 43054.67, 43042.80, 0.00, 0.00, 0.00
224, 57120.39, 57126.92, 57211.25, 57185.48, 43007.79, 43022.08, 43064.72, 43052.83, 0.00, 0.00, 0.00
225, 57107.43, 57113.96, 57198.07, 57172.32, 43009.92, 43023.73, 43066.47, 43054.55, 0.00, 0.00, 0.00
226, 57121.42, 57127.91, 57211.99, 57186.38, 43005.98, 43020.07, 43062.89, 43051.34, 0.00, 0.00, 0.00
227, 57154.50, 57161.28, 57245.45, 57219.57, 42999.84, 43013.79, 43056.59, 43044.86, 0.00, 0.00, 0.00
228, 57162.73, 57169.48, 57253.45, 57228.02, 43009.09, 43023.11, 43065.91, 43053.88, 0.00, 0.00, 0.00
229, 57157.05, 57163.64, 57247.35, 57222.16, 43002.72, 43016.58, 43059.45, 43047.74, 0.00, 0.00, 0.00
230, 57161.43, 57168.18, 57251.96, 57226.70, 43005.05, 43018.95, 43061.75, 43050.11, -0.06, -0.03, 0.96
231, 57063.87, 57070.35, 57154.30, 57128.71, 43028.87, 43042.84, 43085.71, 43073.89, 0.00, 0.00, 0.00
232, 57126.32, 57133.14, 57217.07, 57191.14, 43028.89, 43043.20, 43086.32, 43074.29, 0.00, 0.00, 0.00
233, 57166.55, 57173.48, 57257.43, 57231.77, 43029.27, 43043.33, 43086.25, 43074.29, 0.00, 0.00, 0.00
234, 57157.75, 57164.54, 57248.40, 57222.81, 43014.79, 43028.98, 43071.99, 43059.88, 0.00, 0.00, 0.00
235, 57146.84, 57153.57, 57237.38, 57211.88, 43014.28, 43028.71, 43071.70, 43059.58, 0.00, 0.00, 0.00
236, 57112.44, 57119.03, 57203.05, 57177.53, 43023.06, 43037.39, 43080.21, 43068.34, 0.00, 0.00, 0.00
237, 57117.27, 57123.70, 57207.81, 57182.20, 43011.37, 43025.48, 43068.52, 43056.41, 0.00, 0.00, 0.00
238, 57142.48, 57148.91, 57233.25, 57207.45, 42999.37, 43013.56, 43056.41, 43044.36, 0.00, 0.00, 0.00
239, 57150.23, 57157.01, 57240.89, 57215.41, 43015.95, 43029.77, 43072.73, 43060.70, 0.00, 0.00, 0.00
240, 57140.73, 57147.39, 57231.71, 57205.93, 43029.45, 43043.45, 43086.11, 43074.52, -0.03, -0.03, 1.01
241, 57158.30, 57164.45, 57248.98, 57223.05, 43021.72, 43035.91, 43078.65, 43067.05, 0.00, 0.00, 0.00
242, 57154.84, 57161.05, 57245.45, 57219.48, 43021.38, 43035.64, 43078.49, 43066.51, 0.00, 0.00, 0.00
243, 57141.85, 57148.11, 57232.31, 57206.43, 43010.54, 43024.78, 43067.56, 43055.58, 0.00, 0.00, 0.00
244, 57154.28, 57161.05, 57244.92, 57219.32, 42982.29, 42996.11, 43039.02, 43027.24, 0.00, 0.00, 0.00
245, 57157.07, 57163.94, 57247.75, 57222.27, 42967.98, 42981.91, 43024.89, 43012.89, 0.00, 0.00, 0.00
246, 57116.26, 57122.99, 57206.83, 57181.26, 42959.25, 42973.02, 43015.95, 43004.17, 0.00, 0.00, 0.00
247, 57125.04, 57131.59, 57215.70, 57190.13, 42954.15, 42968.21, 43011.04, 42999.30, 0.00, 0.00, 0.00
248, 57144.11, 57151.04, 57235.04, 57209.38, 42945.05, 42959.02, 43001.98, 42990.07, 0.00, 0.00, 0.00
249, 57143.04, 57149.92, 57233.94, 57208.04, 42940.40, 42954.24, 42997.36, 42985.29, 0.00, 0.00, 0.00
250, 57158.68, 57165.23, 57249.43, 57223.79, 42941.63, 42955.65, 42998.86, 42986.74, -0.02, -0.02, 1.01
251, 57151.98, 57158.68, 57242.75, 57217.16, 42958.44, 42972.46, 43015.13, 43003.48, 0.00, 0.00, 0.00
252, 57139.53, 57146.05, 57230.19, 57204.46, 42971.96, 42986.05, 43028.87, 43017.07, 0.00, 0.00, 0.00
253, 57151.29, 57158.28, 57242.30, 57216.66, 42963.80, 42977.69, 43020.80, 43008.93, 0.00, 0.00, 0.00
254, 57146.41, 57153.30, 57237.18, 57211.48, 42954.31, 42968.41, 43011.28, 42999.37, 0.00, 0.00, 0.00
255, 57141.36, 57147.89, 57231.89, 57206.25, 42952.59, 42966.91, 43009.76, 42997.80, 0.00, 0.00, 0.00
0, 57158.73, 57165.05, 57249.32, 57223.44, 42946.80, 42960.99, 43003.73, 42991.86, 0.00, 0.00, 0.00
1, 57173.95, 57180.81, 57264.47, 57238.75, 42917.74, 42931.48, 42974.56, 42962.62, 0.00, 0.00, 0.00
2, 57171.83, 57178.55, 57262.69, 57236.85, 42929.59, 42943.58, 42986.63, 42974.42, 0.00, 0.00, 0.00
3, 57179.49, 57186.09, 57270.06, 57244.54, 42947.22, 42961.23, 43004.20, 42992.15, 0.00, 0.00, 0.00
4, 57198.13, 57204.68, 57288.73, 57263.13, 42949.97, 42964.14, 43007.10, 42995.23, -0.03, -0.01, 1.00
5, 57092.41, 57099.07, 57183.16, 57157.52, 42952.59, 42966.80, 43009.92, 42997.98, 0.00, 0.00, 0.00
6, 57133.94, 57140.58, 57224.80, 57199.18, 42946.26, 42960.30, 43003.21, 42991.21, 0.00, 0.00, 0.00
7, 57152.36, 57158.97, 57243.22, 57217.27, 42941.45, 42955.54, 42998.09, 42986.11, 0.00, 0.00, 0.00
8, 57159.96, 57166.82, 57251.06, 57225.20, 42926.64, 42940.74, 42983.25, 42971.72, 0.00, 0.00, 0.00
9, 57169.59, 57176.36, 57260.63, 57234.88, 42919.91, 42933.95, 42976.48, 42964.86, 0.00, 0.00, 0.00
10, 57117.13, 57123.34, 57207.61, 57182.15, 42928.13, 42942.01, 42984.82, 42973.08, 0.00, 0.00, 0.00
11, 57104.26, 57110.67, 57194.74, 57169.08, 42943.13, 42957.21, 43000.15, 42988.37, 0.00, 0.00, 0.00
12, 57127.19, 57133.79, 57217.74, 57192.08, 42939.06, 42953.21, 42995.99, 42984.21, 0.00, 0.00, 0.00
13, 57151.71, 57158.50, 57242.64, 57216.91, 42933.54, 42947.60, 42990.52, 42978.63, 0.00, 0.00, 0.00
14, 57149.65, 57156.45, 57240.54, 57214.85, 42934.44, 42948.85, 42991.30, 42979.41, 0.00, 0.00, 0.00
15, 57162.62, 57169.57, 57253.32, 57227.91, 42924.24, 42938.35, 42981.06, 42968.81, -0.05, 0.00, 1.03
16, 57192.97, 57200.14, 57284.12, 57258.64, 42916.73, 42930.50, 42973.55, 42961.32, 0.00, 0.00, 0.00
17, 57194.58, 57201.33, 57285.15, 57259.91, 42908.60, 42922.41, 42965.17, 42953.35, 0.00, 0.00, 0.00
18, 57196.44, 57202.89, 57286.78, 57261.46, 42907.59, 42921.70, 42964.43, 42952.63, 0.00, 0.00, 0.00
19, 57188.64, 57195.47, 57279.34, 57253.86, 42909.69, 42923.86, 42966.78, 42954.60, 0.00, 0.00, 0.00
20, 57173.64, 57180.61, 57264.50, 57238.90, 42932.22, 42946.33, 42989.31, 42977.51, 0.00, 0.00, 0.00
21, 57195.52, 57202.40, 57286.00, 57260.88, 42928.91, 42942.71, 42985.91, 42973.98, 0.00, 0.00, 0.00
22, 57212.20, 57219.30, 57302.74, 57277.80, 42932.04, 42945.70, 42988.73, 42976.79, 0.00, 0.00, 0.00
23, 57200.08, 57206.61, 57290.74, 57265.32, 42932.22, 42945.95, 42988.95, 42976.77, 0.00, 0.00, 0.00
24, 57195.68, 57202.27, 57286.58, 57261.08, 42940.18, 42953.84, 42997.02, 42984.82, 0.00, 0.00, 0.00
25, 57205.31, 57211.97, 57296.41, 57270.53, 42947.60, 42961.46, 43004.24, 42992.53, -0.03, 0.04, 0.98
26, 57215.17, 57221.67, 57306.09, 57280.43, 42944.63, 42959.11, 43001.71, 42989.85, 0.00, 0.00, 0.00
27, 57227.93, 57234.39, 57318.39, 57292.95, 42934.39, 42948.76, 42991.72, 42979.56, 0.00, 0.00, 0.00
28, 57220.53, 57227.44, 57311.30, 57285.86, 42936.09, 42950.04, 42993.09, 42981.26, 0.00, 0.00, 0.00
29, 57217.65, 57224.35, 57308.44, 57282.78, 42930.91, 42945.05, 42988.04, 42976.05, 0.00, 0.00, 0.00
30, 57235.64, 57242.05, 57326.50, 57300.73, 42931.91, 42945.88, 42988.68, 42976.82, 0.00, 0.00, 0.00
31, 57261.28, 57267.67, 57352.00, 57326.25, 42926.12, 42940.38, 42982.98, 42971.12, 0.00, 0.00, 0.00
32, 57253.63, 57260.14, 57344.56, 57318.86, 42917.80, 42932.49, 42975.05, 42962.87, 0.00, 0.00, 0.00
33, 57250.84, 57257.59, 57341.95, 57316.15, 42917.43, 42931.57, 42974.42, 42962.27, 0.00, 0.00, 0.00
34, 57257.07, 57263.91, 57347.98, 57322.57, 42919.33, 42933.83, 42976.35, 42964.43, 0.00, 0.00, 0.00
35, 57166.51, 57173.39, 57257.34, 57232.04, 42931.57, 42945.77, 42988.39, 42976.61, -0.03, 0.06, 1.02
36, 57215.61, 57222.45, 57306.47, 57280.86, 42905.98, 42920.06, 42962.49, 42950.75, 0.00, 0.00, 0.00
37, 57256.96, 57263.82, 57347.69, 57322.03, 42896.93, 42911.04, 42953.55, 42941.86, 0.00, 0.00, 0.00
38, 57269.91, 57276.77, 57360.34, 57334.77, 42903.39, 42917.29, 42960.16, 42948.09, 0.00, 0.00, 0.00
39, 57282.76, 57289.48, 57373.37, 57347.73, 42898.70, 42912.58, 42955.65, 42943.42, 0.00, 0.00, 0.00
40, 57222.16, 57228.93, 57312.87, 57287.47, 42904.57, 42918.19, 42961.46, 42949.12, 0.00, 0.00, 0.00
41, 57221.11, 57227.91, 57312.02, 57286.42, 42907.86, 42922.03, 42964.84, 42952.52, 0.00, 0.00, 0.00
42, 57269.41, 57276.05, 57359.94, 57334.32, 42909.71, 42923.77, 42966.22, 42954.33, 0.00, 0.00, 0.00
43, 57276.43, 57282.98, 57366.82, 57341.39, 42921.58, 42935.55, 42978.49, 42966.40, 0.00, 0.00, 0.00
44, 57271.29, 57277.91, 57361.55, 57336.40, 42923.73, 42937.79, 42980.55, 42968.50, 0.00, 0.00, 0.00
45, 57288.28, 57294.80, 57378.87, 57353.75, 42930.39, 42944.09, 42986.92, 42975.05, -0.03, 0.07, 0.99
46, 57299.01, 57305.71, 57389.71, 57364.32, 42931.82, 42945.48, 42988.46, 42976.43, 0.00, 0.00, 0.00
47, 57300.10, 57306.70, 57390.79, 57365.44, 42934.23, 42948.23, 42990.76, 42978.92, 0.00, 0.00, 0.00
48, 57314.32, 57321.09, 57405.22, 57379.74, 42940.07, 42953.82, 42996.84, 42984.77, 0.00, 0.00, 0.00
49, 57299.95, 57306.77, 57390.83, 57365.10, 42937.83, 42951.78, 42994.72, 42982.89, 0.00, 0.00, 0.00
50, 57294.71, 57301.06, 57385.64, 57359.67, 42933.74, 42947.78, 42990.54, 42979.03, 0.00, 0.00, 0.00
51, 57315.04, 57321.52, 57405.74, 57379.90, 42932.18, 42946.37, 42989.09, 42977.22, 0.00, 0.00, 0.00
52, 57316.98, 57323.19, 57407.61, 57381.80, 42899.39, 42913.47, 42956.39, 42944.61, 0.00, 0.00, 0.00
53, 57310.39, 57316.64, 57400.82, 57375.20, 42901.40, 42915.64, 42958.55, 42946.57, 0.00, 0.00, 0.00
54, 57323.82, 57330.34, 57414.61, 57388.93, 42892.91, 42907.39, 42950.37, 42938.10, 0.00, 0.00, 0.00
55, 57321.63, 57328.29, 57412.27, 57386.87, 42868.59, 42882.65, 42925.61, 42913.49, -0.07, 0.07, 0.99
56, 57310.39, 57317.16, 57401.20, 57375.76, 42865.46, 42879.36, 42922.34, 42910.30, 0.00, 0.00, 0.00
57, 57316.20, 57322.88, 57407.19, 57381.69, 42869.59, 42883.81, 42926.41, 42914.34, 0.00, 0.00, 0.00
58, 57311.86, 57318.50, 57403.01, 57377.44, 42879.20, 42893.64, 42936.16, 42924.54, 0.00, 0.00, 0.00
59, 57303.75, 57310.43, 57394.58, 57368.81, 42885.24, 42899.41, 42941.95, 42930.35, 0.00, 0.00, 0.00
60, 57290.63, 57297.31, 57381.42, 57355.71, 42865.35, 42879.34, 42922.21, 42910.25, 0.00, 0.00, 0.00
61, 57288.21, 57295.07, 57379.12, 57353.37, 42825.58, 42839.87, 42882.51, 42870.42, 0.00, 0.00, 0.00
62, 57306.50, 57313.56, 57397.13, 57371.63, 42816.40, 42830.55, 42873.24, 42861.35, 0.00, 0.00, 0.00
63, 57316.58, 57323.46, 57407.48, 57382.13, 42818.43, 42832.24, 42874.91, 42863.25, 0.00, 0.00, 0.00
64, 57301.02, 57307.97, 57391.81, 57366.29, 42789.64, 42803.34, 42846.23, 42834.30, 0.00, 0.00, 0.00
65, 57201.87, 57208.64, 57292.66, 57266.98, 42799.63, 42813.34, 42856.14, 42844.45, 0.00, 0.00, 0.00
66, 57228.09, 57234.79, 57318.88, 57293.18, 42800.82, 42814.90, 42857.57, 42845.70, -0.07, 0.09, 0.95
67, 57276.63, 57283.16, 57367.16, 57341.72, 42795.27, 42809.60, 42852.18, 42840.20, 0.00, 0.00, 0.00
68, 57290.87, 57297.76, 57381.91, 57356.00, 42789.73, 42803.72, 42846.57, 42834.68, 0.00, 0.00, 0.00
69, 57292.28, 57299.10, 57383.36, 57357.39, 42776.21, 42790.22, 42833.09, 42820.89, 0.00, 0.00, 0.00
70, 57239.24, 57245.81, 57330.05, 57304.28, 42793.64, 42807.41, 42849.97, 42838.30, 0.00, 0.00, 0.00
71, 57232.55, 57239.08, 57323.41, 57297.71, 42799.70, 42813.27, 42856.21, 42844.43, 0.00, 0.00, 0.00
72, 57267.13, 57273.46, 57357.84, 57332.31, 42795.99, 42809.58, 42852.83, 42840.63, 0.00, 0.00, 0.00
73, 57279.90, 57286.47, 57370.91, 57345.25, 42802.32, 42815.97, 42858.75, 42846.73, 0.00, 0.00, 0.00
74, 57279.45, 57285.91, 57370.38, 57344.61, 42834.23, 42848.49, 42891.16, 42879.14, 0.00, 0.00, 0.00
75, 57283.45, 57290.00, 57374.20, 57348.41, 42851.40, 42865.77, 42908.11, 42896.71, 0.00, 0.00, 0.00
76, 57284.64, 57291.41, 57375.45, 57349.66, 42856.96, 42870.82, 42913.61, 42901.96, -0.10, 0.09, 0.96
77, 57284.88, 57291.63, 57375.83, 57349.90, 42869.10, 42882.60, 42925.70, 42913.76, 0.00, 0.00, 0.00
78, 57275.45, 57282.11, 57366.38, 57340.74, 42861.59, 42875.14, 42917.96, 42906.07, 0.00, 0.00, 0.00
79, 57268.92, 57275.88, 57359.80, 57334.21, 42869.66, 42883.65, 42926.43, 42914.36, 0.00, 0.00, 0.00
80, 57279.38, 57286.16, 57369.86, 57344.56, 42892.57, 42906.43, 42949.23, 42937.30, 0.00, 0.00, 0.00
81, 57291.74, 57298.61, 57382.74, 57357.28, 42891.45, 42905.45, 42948.18, 42936.54, 0.00, 0.00, 0.00
82, 57280.23, 57286.54, 57370.96, 57345.39, 42897.62, 42911.73, 42954.42, 42942.91, 0.00, 0.00, 0.00
83, 57271.43, 57278.24, 57362.46, 57336.65, 42892.84, 42906.95, 42949.79, 42938.04, 0.00, 0.00, 0.00
84, 57280.90, 57287.47, 57371.85, 57345.84, 42894.49, 42908.39, 42951.56, 42939.55, 0.00, 0.00, 0.00
85, 57277.86, 57284.46, 57368.41, 57342.71, 42897.64, 42911.57, 42954.60, 42942.53, 0.00, 0.00, 0.00
86, 57267.83, 57274.53, 57358.53, 57332.65, 42897.98, 42912.13, 42955.00, 42942.86, -0.13, 0.12, 0.96
87, 57270.91, 57277.64, 57361.86, 57335.98, 42911.79, 42925.85, 42968.84, 42956.99, 0.00, 0.00, 0.00
88, 57274.02, 57280.66, 57364.86, 57338.88, 42905.09, 42919.13, 42962.02, 42950.17, 0.00, 0.00, 0.00
89, 57272.83, 57279.76, 57363.85, 57338.01, 42894.88, 42909.16, 42951.76, 42939.80, 0.00, 0.00, 0.00
90, 57275.56, 57282.51, 57366.82, 57340.65, 42894.76, 42909.16, 42951.94, 42939.67, 0.00, 0.00, 0.00
91, 57302.41, 57309.20, 57393.13, 57367.61, 42897.46, 42911.39, 42954.26, 42942.35, 0.00, 0.00, 0.00
92, 57322.93, 57330.08, 57413.89, 57388.46, 42912.24, 42925.81, 42968.97, 42957.05, 0.00, 0.00, 0.00
93, 57327.95, 57334.70, 57418.97, 57393.11, 42933.74, 42947.49, 42990.74, 42978.31, 0.00, 0.00, 0.00
94, 57321.74, 57328.11, 57412.33, 57386.74, 42902.52, 42916.42, 42959.40, 42947.11, 0.00, 0.00, 0.00
95, 57241.41, 57247.98, 57332.34, 57306.70, 42915.48, 42929.07, 42972.03, 42960.05, 0.00, 0.00, 0.00
96, 57261.82, 57268.52, 57352.90, 57327.08, 42931.51, 42945.37, 42988.24, 42976.39, -0.14, 0.15, 0.98
97, 57319.71, 57326.34, 57410.41, 57384.75, 42910.34, 42924.24, 42967.09, 42955.18, 0.00, 0.00, 0.00
98, 57333.63, 57340.27, 57424.40, 57398.70, 42921.23, 42935.13, 42978.13, 42966.04, 0.00, 0.00, 0.00
99, 57338.37, 57345.14, 57429.56, 57403.88, 42915.13, 42929.30, 42972.37, 42960.45, 0.00, 0.00, 0.00
100, 57307.05, 57313.63, 57398.00, 57372.21, 42902.23, 42916.27, 42959.29, 42947.38, 0.00, 0.00, 0.00
101, 57292.39, 57298.89, 57383.27, 57357.28, 42912.80, 42927.13, 42969.95, 42958.09, 0.00, 0.00, 0.00
102, 57323.17, 57329.63, 57414.10, 57387.95, 42901.67, 42915.75, 42958.53, 42946.64, 0.00, 0.00, 0.00
103, 57329.34, 57335.69, 57420.09, 57394.32, 42906.47, 42920.29, 42963.40, 42951.25, 0.00, 0.00, 0.00
104, 57334.12, 57340.80, 57425.05, 57399.52, 42914.34, 42927.86, 42970.98, 42959.31, 0.00, 0.00, 0.00
105, 57346.33, 57352.96, 57437.45, 57411.77, 42925.92, 42939.60, 42982.54, 42971.07, 0.00, 0.00, 0.00
106, 57352.45, 57359.20, 57443.27, 57417.54, 42931.98, 42946.17, 42989.06, 42977.24, -0.16, 0.15, 0.97
107, 57347.51, 57354.42, 57438.28, 57412.89, 42930.17, 42944.02, 42987.19, 42974.98, 0.00, 0.00, 0.00
108, 57356.45, 57363.27, 57447.25, 57421.68, 42918.25, 42932.02, 42975.00, 42963.02, 0.00, 0.00, 0.00
109, 57371.52, 57378.27, 57462.40, 57436.63, 42917.18, 42931.38, 42973.95, 42962.20, 0.00, 0.00, 0.00
110, 57387.01, 57393.60, 57477.82, 57452.23, 42943.94, 42958.22, 43001.04, 42989.18, 0.00, 0.00, 0.00
111, 57395.55, 57402.23, 57486.41, 57460.77, 42956.90, 42970.80, 43013.54, 43001.83, 0.00, 0.00, 0.00
112, 57412.20, 57418.90, 57503.30, 57477.60, 42954.38, 42968.28, 43010.81, 42999.39, 0.00, 0.00, 0.00
113, 57428.07, 57434.91, 57519.20, 57493.45, 42969.80, 42983.77, 43026.61, 43015.06, 0.00, 0.00, 0.00
114, 57434.13, 57440.92, 57525.03, 57499.35, 42959.78, 42973.75, 43016.80, 43004.87, 0.00, 0.00, 0.00
115, 57421.23, 57428.02, 57512.20, 57486.76, 42970.51, 42984.41, 43027.29, 43015.57, 0.00, 0.00, 0.00
116, 57423.29, 57429.74, 57514.23, 57488.82, 42982.05, 42995.84, 43038.66, 43026.75, 0.00, 0.00, 0.00
117, 57444.59, 57450.84, 57535.49, 57510.14, 42977.11, 42990.94, 43033.84, 43021.99, -0.14, 0.15, 0.99
118, 57458.53, 57465.26, 57549.79, 57524.13, 42989.96, 43003.66, 43046.91, 43034.89, 0.00, 0.00, 0.00
119, 57450.89, 57457.75, 57541.97, 57516.16, 42995.01, 43008.80, 43051.74, 43039.63, 0.00, 0.00, 0.00
120, 57443.27, 57449.99, 57534.33, 57508.76, 42980.26, 42994.43, 43037.01, 43025.14, 0.00, 0.00, 0.00
121, 57456.70, 57463.18, 57547.56, 57522.14, 42972.48, 42986.74, 43029.52, 43017.81, 0.00, 0.00, 0.00
122, 57483.07, 57490.09, 57574.00, 57548.77, 42977.42, 42991.50, 43034.57, 43022.77, 0.00, 0.00, 0.00
123, 57480.59, 57487.66, 57571.90, 57546.29, 42967.70, 42981.98, 43024.58, 43012.82, 0.00, 0.00, 0.00
124, 57467.96, 57474.80, 57559.14, 57533.52, 42964.93, 42979.18, 43021.83, 43010.21, 0.00, 0.00, 0.00
125, 57399.05, 57405.65, 57489.98, 57464.32, 42976.99, 42991.25, 43034.13, 43022.14, 0.00, 0.00, 0.00
126, 57392.91, 57399.48, 57483.84, 57458.00, 43003.10, 43017.41, 43060.28, 43048.23, 0.00, 0.00, 0.00
127, 57428.63, 57434.91, 57519.29, 57493.67, 42996.91, 43010.88, 43053.79, 43041.95, -0.10, 0.15, 1.00
128, 57438.46, 57445.46, 57529.68, 57503.88, 42983.36, 42997.38, 43040.36, 43028.40, 0.00, 0.00, 0.00
129, 57440.85, 57447.98, 57532.11, 57506.36, 42981.02, 42995.16, 43038.30, 43026.30, 0.00, 0.00, 0.00
130, 57399.52, 57406.21, 57490.56, 57464.88, 43003.41, 43017.54, 43060.72, 43048.79, 0.00, 0.00, 0.00
131, 57354.48, 57361.23, 57445.50, 57419.73, 43028.74, 43042.66, 43085.69, 43073.87, 0.00, 0.00, 0.00
132, 57377.17, 57383.99, 57468.03, 57442.48, 43039.89, 43053.77, 43096.78, 43085.24, 0.00, 0.00, 0.00
133, 57384.61, 57391.12, 57475.56, 57450.22, 43031.31, 43045.21, 43088.48, 43076.64, 0.00, 0.00, 0.00
134, 57389.64, 57395.84, 57480.50, 57454.78, 43043.87, 43057.93, 43100.93, 43089.13, 0.00, 0.00, 0.00
135, 57398.00, 57404.26, 57488.62, 57463.11, 43041.70, 43055.49, 43098.74, 43086.88, 0.00, 0.00, 0.00
136, 57391.19, 57397.47, 57482.05, 57456.74, 43033.84, 43047.85, 43090.77, 43079.05, 0.00, 0.00, 0.00
137, 57381.64, 57388.21, 57472.79, 57447.09, 43033.05, 43047.36, 43089.98, 43078.02, -0.15, 0.17, 0.97
138, 57393.64, 57400.26, 57485.06, 57458.93, 43045.34, 43059.47, 43102.45, 43090.52, 0.00, 0.00, 0.00
139, 57388.75, 57395.52, 57479.97, 57454.00, 43045.46, 43059.54, 43102.48, 43090.56, 0.00, 0.00, 0.00
140, 57370.46, 57377.44, 57461.66, 57436.07, 43044.83, 43059.05, 43101.52, 43089.73, 0.00, 0.00, 0.00
141, 57370.60, 57377.64, 57461.95, 57436.36, 43023.39, 43037.86, 43080.44, 43068.82, 0.00, 0.00, 0.00
142, 57384.50, 57391.45, 57475.34, 57449.77, 43002.03, 43016.22, 43058.98, 43047.58, 0.00, 0.00, 0.00
143, 57366.13, 57373.08, 57456.88, 57431.31, 43015.44, 43029.43, 43072.57, 43060.28, 0.00, 0.00, 0.00
144, 57355.07, 57361.57, 57445.84, 57420.07, 43023.66, 43037.43, 43080.77, 43068.14, 0.00, 0.00, 0.00
145, 57352.38, 57359.13, 57443.31, 57417.50, 43006.70, 43020.98, 43063.74, 43051.38, 0.00, 0.00, 0.00
146, 57349.28, 57356.00, 57440.14, 57414.72, 42982.94, 42997.20, 43039.91, 43027.98, 0.00, 0.00, 0.00
147, 57355.98, 57362.66, 57446.48, 57421.00, 42980.93, 42994.79, 43037.48, 43026.19, -0.16, 0.17, 0.96
148, 57354.60, 57361.57, 57445.59, 57420.04, 42960.23, 42974.29, 43016.87, 43005.25, 0.00, 0.00, 0.00
149, 57335.42, 57342.15, 57426.28, 57400.82, 42961.01, 42975.09, 43017.68, 43006.07, 0.00, 0.00, 0.00
150, 57344.49, 57351.24, 57435.31, 57409.76, 42951.09, 42965.30, 43007.95, 42996.29, 0.00, 0.00, 0.00
151, 57348.98, 57355.34, 57439.42, 57414.03, 42956.03, 42969.75, 43012.82, 43000.80, 0.00, 0.00, 0.00
152, 57359.40, 57366.04, 57450.15, 57424.91, 42940.96, 42954.64, 42997.67, 42985.82, 0.00, 0.00, 0.00
153, 57355.78, 57362.57, 57446.80, 57421.18, 42920.54, 42934.59, 42977.39, 42965.37, 0.00, 0.00, 0.00
